* Measurement data measured by REW V5.20 Beta 53
* Source: C:\Users\Napie\Music\REW\Top Speakers\New Folder\6-ERDI.txt
* Format: Comma/Tab/Space delimited data
* Dated: May 26, 2020 3:04:13 PM
* REW Settings:
*  C-weighting compensation: Off
*  Target level: 75.0 dB
* Note: ; Measurement imported from C:\Users\Napie\Music\REW\Top Speakers\New Folder\6-ERDI.txt Format: Comma/Tab/Space delimited data 623 values loaded, 5 Hz to 39,792 Hz log spaced 
* Measurement: 6-ERDI
* Smoothing: None
* Frequency Step: 1/96 octave
* Start Frequency: 20.000 Hz
*
* Freq(Hz)	SPL(dB)	Phase(degrees)
20.000000	50.812019	-13.3653
20.144928	50.794014	-13.0701
20.290907	50.780010	-12.7004
20.437943	50.761757	-12.1690
20.586044	50.779968	-11.6413
20.735220	50.898251	-11.2369
20.885475	51.039841	-11.0071
21.036821	51.144508	-11.0984
21.189262	51.225918	-11.3456
21.342808	51.274582	-11.6562
21.497467	51.299980	-11.9577
21.653246	51.288383	-12.0696
21.810154	51.299950	-12.2237
21.968201	51.439514	-12.6336
22.127390	51.559914	-13.1753
22.287735	51.505394	-13.8641
22.449242	51.405083	-14.4946
22.611917	51.344238	-14.7900
22.775772	51.300041	-14.9798
22.940815	51.286514	-15.2046
23.107054	51.278015	-15.4556
23.274498	51.251423	-15.7881
23.443153	51.213058	-16.1505
23.613033	51.162376	-16.5152
23.784142	51.097057	-16.8647
23.956491	51.015652	-17.1938
24.130091	50.915131	-17.4388
24.304947	50.781170	-17.5220
24.481071	50.646172	-17.4791
24.658470	50.546570	-17.3076
24.837156	50.456123	-17.0454
25.017136	50.354683	-16.7275
25.198421	50.260090	-16.3614
25.381020	50.197247	-16.0061
25.564941	50.125088	-15.5415
25.750195	49.977654	-14.8394
25.936790	49.854118	-13.9832
26.124741	49.855019	-12.9455
26.314051	49.910892	-11.9314
26.504732	49.987946	-11.1672
26.696796	50.078888	-10.5626
26.890253	50.161781	-10.1060
27.085112	50.246899	-9.7853
27.281382	50.342442	-9.5888
27.479073	50.432880	-9.5040
27.678198	50.505096	-9.5435
27.878765	50.559937	-9.6209
28.080786	50.580597	-9.6234
28.284271	50.606945	-9.6429
28.489231	50.696308	-9.7532
28.695675	50.779900	-9.8978
28.903616	50.774574	-10.0069
29.113064	50.779953	-10.1936
29.324028	50.918316	-10.5708
29.536524	51.039902	-11.0713
29.750557	50.996090	-11.7414
29.966141	50.904110	-12.3534
30.183289	50.833572	-12.6127
30.402010	50.780052	-12.7658
30.622314	50.783054	-12.9926
30.844217	50.780022	-13.2018
31.067726	50.693626	-13.3538
31.292856	50.607109	-13.4718
31.519617	50.607052	-13.5655
31.748020	50.607014	-13.6369
31.978081	50.520496	-13.6899
32.209808	50.433094	-13.7290
32.443211	50.434986	-13.7831
32.678310	50.427036	-13.7831
32.915108	50.296051	-13.6539
33.153625	50.173122	-13.4413
33.393871	50.190819	-13.1269
33.635857	50.232944	-12.8284
33.879597	50.210361	-12.7187
34.125103	50.173058	-12.6152
34.372387	50.133606	-12.3397
34.621464	50.116001	-12.0494
34.872345	50.168045	-11.8420
35.125042	50.230930	-11.7191
35.379574	50.246861	-11.7189
35.635948	50.259979	-11.8278
35.894180	50.316051	-12.0663
36.154285	50.352982	-12.3705
36.416275	50.302231	-12.7037
36.680161	50.228115	-13.0046
36.945961	50.185257	-13.1925
37.213688	50.135086	-13.2889
37.483353	50.045082	-13.3052
37.754974	49.951141	-13.1913
38.028561	49.872593	-12.8472
38.304131	49.827030	-12.4336
38.581699	49.853374	-12.0630
38.861279	49.906910	-11.7803
39.142883	49.944439	-11.6306
39.426529	49.999908	-11.7247
39.712231	50.139950	-12.2782
40.000000	50.223965	-13.0228
40.289856	50.082279	-13.8392
40.581814	49.867321	-14.4943
40.875885	49.693695	-14.7022
41.172089	49.507301	-14.5006
41.470440	49.245392	-13.7434
41.770950	49.047230	-12.6969
42.073643	49.076557	-11.4683
42.378525	49.198792	-10.3903
42.685616	49.343357	-9.9166
42.994934	49.479828	-9.7930
43.306492	49.545628	-9.9755
43.620308	49.567001	-10.2835
43.936401	49.536316	-10.4893
44.254780	49.493069	-10.6897
44.575470	49.498127	-10.9344
44.898483	49.480068	-11.1387
45.223835	49.358334	-11.2548
45.551544	49.220196	-11.2212
45.881630	49.134232	-10.8998
46.214108	49.077065	-10.4727
46.548996	49.053089	-10.0729
46.886307	49.047001	-9.7105
47.226067	49.045124	-9.4394
47.568283	49.046997	-9.2602
47.912983	49.057869	-9.2298
48.260181	49.047050	-9.2340
48.609894	48.965523	-9.1760
48.962143	48.873135	-9.0602
49.316940	48.829998	-8.8532
49.674313	48.787079	-8.5725
50.034271	48.696396	-8.2087
50.396843	48.614101	-7.8096
50.762039	48.606251	-7.4309
51.129883	48.596043	-7.0407
51.500389	48.507057	-6.6626
51.873581	48.403179	-6.1850
52.249481	48.323868	-5.4578
52.628101	48.267071	-4.6185
53.009464	48.255569	-3.7832
53.393593	48.254005	-2.8677
53.780506	48.203186	-1.7660
54.170223	48.196945	-0.6578
54.562763	48.355198	0.3206
54.958145	48.541718	1.1438
55.356396	48.630623	1.6861
55.757530	48.708858	2.1123
56.161572	48.824417	2.6255
56.568542	48.969738	2.9876
56.978462	49.181881	2.9834
57.391350	49.374695	2.7446
57.807232	49.452721	2.2668
58.226128	49.479980	1.7449
58.648056	49.486565	1.3993
59.073048	49.480015	1.1513
59.501114	49.480000	1.0017
59.932281	49.480000	0.9301
60.366577	49.474564	0.9375
60.804020	49.479973	0.9600
61.244629	49.523422	0.9317
61.688435	49.566940	0.8582
62.135452	49.577686	0.6836
62.585712	49.567036	0.5262
63.039234	49.525265	0.5000
63.496040	49.483063	0.5638
63.956161	49.472878	0.7437
64.419617	49.479973	0.9516
64.886421	49.504692	1.1016
65.356621	49.533955	1.2128
65.830215	49.553837	1.2614
66.307251	49.566986	1.2919
66.787743	49.569065	1.3380
67.271713	49.567001	1.4088
67.759193	49.567001	1.5156
68.250206	49.567001	1.6856
68.744774	49.550762	2.0119
69.242928	49.566929	2.3086
69.744690	49.696751	2.4010
70.250084	49.826794	2.3462
70.759148	49.843258	2.0862
71.271896	49.827042	1.7925
71.788361	49.827000	1.6513
72.308571	49.827003	1.5631
72.832550	49.827000	1.4884
73.360321	49.827000	1.4311
73.891922	49.827000	1.3828
74.427376	49.827003	1.3421
74.966705	49.827000	1.3057
75.509949	49.827000	1.2711
76.057121	49.827000	1.2364
76.608261	49.827000	1.1961
77.163399	49.827000	1.1524
77.722557	49.827000	1.0792
78.285767	49.837868	0.9098
78.853058	49.827057	0.7682
79.424461	49.740185	0.7690
80.000000	49.653137	0.8747
80.579712	49.642117	1.1237
81.163628	49.652977	1.4015
81.751770	49.653000	1.5833
82.344177	49.653000	1.7367
82.940880	49.653000	1.8885
83.541901	49.653004	2.0377
84.147285	49.653000	2.1895
84.757050	49.653004	2.3517
85.371231	49.651752	2.5301
85.989868	49.652992	2.7355
86.612984	49.653358	3.0159
87.240616	49.672935	3.2656
87.872803	49.751080	3.3779
88.509560	49.826874	3.4020
89.150940	49.836193	3.3204
89.796967	49.827023	3.2282
90.447670	49.827744	3.2462
91.103088	49.833981	3.2809
91.763260	49.859573	3.2568
92.428215	49.877979	3.2390
93.097992	49.849930	3.2874
93.772614	49.827023	3.3439
94.452133	49.872086	3.3565
95.136566	49.912945	3.3660
95.825966	49.871662	3.3891
96.520363	49.827068	3.4458
97.219788	49.850056	3.5949
97.924286	49.887924	3.7368
98.633881	49.907345	3.7646
99.348625	49.919979	3.7570
100.068542	49.924995	3.7596
100.793686	49.926994	3.7660
101.524078	49.930992	3.7874
102.259766	49.934990	3.8159
103.000778	49.938553	3.8470
103.747162	49.941994	3.8809
104.498962	49.945435	3.9166
105.256203	49.948997	3.9539
106.018929	49.952995	3.9924
106.787186	49.956993	4.0319
107.561012	49.960556	4.0720
108.340446	49.963993	4.1129
109.125526	49.967430	4.1551
109.916290	49.970993	4.1979
110.712791	49.974991	4.2412
111.515060	49.978992	4.2849
112.323143	49.982552	4.3287
113.137085	49.985992	4.3729
113.956924	49.989433	4.4181
114.782700	49.992989	4.4639
115.614464	49.996990	4.5096
116.452255	50.000992	4.5559
117.296112	50.004494	4.6032
118.146095	50.007992	4.6509
119.002228	50.011990	4.6983
119.864563	50.015987	4.7459
120.733154	50.019550	4.7941
121.608040	50.022991	4.8429
122.489258	50.026428	4.8921
123.376869	50.029991	4.9419
124.270905	50.033989	4.9922
125.171425	50.037991	5.0429
126.078468	50.041553	5.0937
126.992081	50.044991	5.1449
127.912323	50.048431	5.1966
128.839233	50.051991	5.2489
129.772842	50.055992	5.3016
130.713242	50.059994	5.3549
131.660431	50.063492	5.4086
132.614502	50.066994	5.4628
133.575485	50.070992	5.5176
134.543427	50.074997	5.5729
135.518387	50.078556	5.6291
136.500412	50.081993	5.6859
137.489548	50.085434	5.7431
138.485855	50.088993	5.8009
139.489380	50.092995	5.8594
140.500168	50.096992	5.9189
141.518295	50.100555	5.9794
142.543793	50.103989	6.0408
143.576721	50.107430	6.1033
144.617142	50.110992	6.1669
145.665100	50.114990	6.2312
146.720642	50.118988	6.2968
147.783844	50.122490	6.3641
148.854752	50.125988	6.4328
149.933411	50.129990	6.5024
151.019897	50.133987	6.5738
152.114243	50.137550	6.6476
153.216522	50.140991	6.7238
154.326797	50.144428	6.8024
155.445114	50.147991	6.8838
156.571533	50.151989	6.9683
157.706116	50.155987	7.0568
158.848923	50.159554	7.1497
160.000000	50.162991	7.2488
161.159424	50.166737	7.3511
162.327255	50.169991	7.4717
163.503540	50.166500	7.6463
164.688354	50.172970	7.8097
165.881760	50.222004	7.8688
167.083801	50.259937	7.9417
168.294571	50.205826	8.1675
169.514099	50.173000	8.3925
170.742462	50.297203	8.5304
171.979736	50.432693	8.5163
173.225967	50.465370	8.1126
174.481232	50.433144	7.7506
175.745605	50.288208	7.8996
177.019119	50.175148	8.2162
178.301880	50.287518	8.5471
179.593933	50.432674	8.7836
180.895340	50.449135	8.6764
182.206177	50.433048	8.4944
183.526520	50.432999	8.4596
184.856430	50.432999	8.4689
186.195984	50.432999	8.4902
187.545227	50.432999	8.5289
188.904266	50.432999	8.5799
190.273132	50.432999	8.6438
191.651932	50.432999	8.7189
193.040726	50.432999	8.8067
194.439575	50.432999	8.9071
195.848572	50.432999	9.0236
197.267761	50.432999	9.1561
198.697250	50.433002	9.3166
200.137085	50.430126	9.5206
201.587372	50.432980	9.7574
203.048157	50.447941	10.0462
204.519531	50.478882	10.3133
206.001556	50.545696	10.4608
207.494324	50.606884	10.5787
208.997925	50.604202	10.7358
210.512405	50.606956	10.9006
212.037857	50.684155	11.0968
213.574371	50.779766	11.2268
215.122025	50.856499	11.1777
216.680893	50.925823	11.0176
218.251053	50.991962	10.7589
219.832581	51.039898	10.4569
221.425583	51.047131	10.1633
223.030121	51.040028	9.9006
224.646286	51.040001	9.7223
226.274170	51.040001	9.5873
227.913849	51.040001	9.4715
229.565399	51.040001	9.3762
231.228928	51.040001	9.2949
232.904510	51.040001	9.2272
234.592224	51.040001	9.1710
236.292191	51.040001	9.1251
238.004456	51.040001	9.0878
239.729126	51.040001	9.0591
241.466309	51.040001	9.0380
243.216080	51.039997	9.0250
244.978516	51.040001	9.0203
246.753738	51.040001	9.0240
248.541809	51.040001	9.0360
250.342850	51.040001	9.0579
252.156937	51.040001	9.0899
253.984161	51.040001	9.1359
255.824646	51.040001	9.1946
257.678467	51.040001	9.2817
259.545685	51.034569	9.4287
261.426483	51.039963	9.5876
263.320862	51.077995	9.7347
265.229004	51.126862	9.8288
267.150970	51.175312	9.7939
269.086853	51.212921	9.7113
271.036774	51.218380	9.6208
273.000824	51.213020	9.5730
274.979095	51.202198	9.6833
276.971710	51.212917	9.7968
278.978760	51.299244	9.7828
281.000336	51.385811	9.6814
283.036591	51.396828	9.4508
285.087585	51.386044	9.2067
287.153442	51.386002	9.0726
289.234283	51.386005	8.9852
291.330200	51.386002	8.9153
293.441284	51.386002	8.8820
295.567688	51.380383	8.9126
297.709503	51.385963	8.9549
299.866821	51.425617	8.9794
302.039795	51.475849	8.9442
304.228485	51.523499	8.7722
306.433044	51.559921	8.5397
308.653595	51.565258	8.2913
310.890228	51.560020	8.0466
313.143066	51.560001	7.8519
315.412231	51.560001	7.6725
317.697845	51.560001	7.4936
320.000000	51.560001	7.3006
322.318848	51.565434	7.0576
324.654510	51.560051	6.8127
327.007080	51.522076	6.5886
329.376709	51.473152	6.4264
331.763519	51.424202	6.4012
334.167603	51.386093	6.4339
336.589142	51.380558	6.4806
339.028198	51.385979	6.5090
341.484924	51.387440	6.4629
343.959473	51.386013	6.3703
346.451935	51.381718	6.2184
348.962463	51.363075	6.0743
351.491211	51.306427	6.0119
354.038239	51.248154	6.0000
356.603760	51.228733	6.0384
359.187866	51.213062	6.1068
361.790680	51.171070	6.1740
364.412354	51.127117	6.2717
367.053040	51.099007	6.4312
369.712860	51.077061	6.6224
372.391968	51.055431	6.8278
375.090454	51.040031	7.0394
377.808533	51.037685	7.2453
380.546265	51.039993	7.4395
383.303864	51.040001	7.6072
386.081451	51.039997	7.7626
388.879150	51.040001	7.9144
391.697144	51.040001	8.0635
394.535522	51.040001	8.2128
397.394501	51.040001	8.3646
400.274170	51.040001	8.5208
403.174744	51.040001	8.6855
406.096313	51.040001	8.8577
409.039062	51.040001	9.0543
412.003113	51.034569	9.3079
414.988647	51.039955	9.5702
417.995850	51.077976	9.8175
421.024811	51.126839	10.0085
424.075714	51.175297	10.0673
427.148743	51.212910	10.0740
430.244049	51.218384	10.0709
433.361786	51.213024	10.0978
436.502106	51.207569	10.2356
439.665161	51.212955	10.4045
442.851166	51.250984	10.5651
446.060242	51.299843	10.6758
449.292572	51.348301	10.6563
452.548340	51.385914	10.5833
455.827698	51.391384	10.4991
459.130798	51.386024	10.4282
462.457855	51.386002	10.4188
465.809021	51.386002	10.4409
469.184448	51.386002	10.4792
472.584381	51.386002	10.5368
476.008911	51.386002	10.6103
479.458252	51.386002	10.7047
482.932617	51.385628	10.8187
486.432159	51.385998	10.9675
489.957031	51.381813	11.1899
493.507477	51.391933	11.4143
497.083618	51.446365	11.5838
500.685699	51.506817	11.6918
504.313873	51.540607	11.6815
507.968323	51.559963	11.6471
511.649292	51.561382	11.6686
515.356934	51.560001	11.7337
519.091370	51.568268	11.8857
522.852966	51.590897	12.0366
526.641724	51.648540	12.1021
530.458008	51.705837	12.1121
534.301941	51.726646	12.0437
538.173706	51.732994	11.9712
542.073547	51.734692	11.9640
546.001648	51.733006	12.0147
549.958191	51.727634	12.1550
553.943420	51.732960	12.3364
557.957520	51.768730	12.5369
562.000671	51.818817	12.7075
566.073181	51.877430	12.7706
570.175171	51.932831	12.7900
574.306885	51.959599	12.8251
578.468567	51.992851	12.8132
582.660400	52.079571	12.7030
586.882568	52.159771	12.5168
591.135376	52.176746	12.2170
595.419006	52.166073	11.9318
599.733643	52.142033	11.7870
604.079590	52.113098	11.7549
608.456970	52.087879	11.8782
612.866089	52.079990	12.0703
617.307190	52.115349	12.2678
621.780457	52.165821	12.4425
626.286133	52.209793	12.5274
630.824463	52.252857	12.5759
635.395691	52.291927	12.6179
640.000000	52.331863	12.6579
644.637695	52.372906	12.7285
649.309021	52.425789	12.7749
654.014160	52.507759	12.7695
658.753418	52.599682	12.6626
663.527039	52.697071	12.3509
668.335205	52.772800	11.9673
673.178284	52.778393	11.6130
678.056396	52.772995	11.2830
682.969849	52.813843	11.0277
687.918945	52.859848	10.7809
692.903870	52.882500	10.4808
697.924927	52.899940	10.1631
702.982422	52.925419	9.8422
708.076477	52.945946	9.5211
713.207520	52.948875	9.2019
718.375732	52.946014	8.9020
723.581360	52.945999	8.6431
728.824707	52.945995	8.4157
734.106079	52.943378	8.2248
739.425720	52.945972	8.0486
744.783936	52.964111	7.8708
750.180908	52.987911	7.6797
755.617065	53.007610	7.4673
761.092529	53.032890	7.2061
766.607727	53.079147	6.8562
772.162903	53.119884	6.4456
777.758301	53.125443	5.9793
783.394287	53.120026	5.4867
789.071045	53.121124	5.0179
794.789001	53.120010	4.5169
800.548340	53.123081	3.9067
806.349487	53.102139	3.2990
812.192627	53.011921	2.7791
818.078125	52.909351	2.3523
824.006226	52.846386	2.0807
829.977295	52.794170	1.8786
835.991699	52.735130	1.6964
842.049622	52.686146	1.4859
848.151428	52.677353	1.1520
854.297485	52.652164	0.7854
860.488098	52.545151	0.4051
866.723572	52.411514	0.1327
873.004211	52.276592	0.1686
879.330322	52.166321	0.2975
885.702332	52.146046	0.3382
892.120483	52.123150	0.3818
898.585144	51.993893	0.4358
905.096680	51.854473	0.5733
911.655396	51.782341	0.9165
918.261597	51.733158	1.3265
924.915710	51.685719	1.6899
931.618042	51.646130	2.0477
938.368896	51.613419	2.4065
945.168762	51.588081	2.7587
952.017822	51.570431	3.1028
958.916504	51.560020	3.4258
965.865234	51.558250	3.7130
972.864319	51.559994	3.9671
979.914062	51.560001	4.1828
987.014954	51.560001	4.3693
994.167236	51.560001	4.5357
1001.371399	51.560001	4.6785
1008.627747	51.560001	4.8023
1015.936646	51.560001	4.8917
1023.298584	51.565430	4.9165
1030.713867	51.560047	4.9250
1038.182739	51.522106	4.9424
1045.705933	51.473217	5.0086
1053.283447	51.424263	5.2022
1060.916016	51.386124	5.4320
1068.603882	51.385925	5.6239
1076.347412	51.386028	5.8023
1084.147095	51.348602	5.9433
1092.003296	51.300167	6.1193
1099.916382	51.251293	6.4247
1107.886841	51.213123	6.7715
1115.915039	51.212364	7.0914
1124.001343	51.213017	7.4168
1132.146362	51.175217	7.7493
1140.350342	51.136127	8.1145
1148.613770	51.126701	8.5510
1156.937134	51.126987	9.0220
1165.320801	51.121067	9.5096
1173.765137	51.126930	9.9949
1182.270752	51.163372	10.4665
1190.838013	51.212788	10.8835
1199.467285	51.265289	11.1902
1208.159180	51.315815	11.4192
1216.913940	51.357304	11.5657
1225.732178	51.385925	11.6875
1234.614380	51.389446	11.8353
1243.560913	51.386013	12.0272
1252.572266	51.386292	12.3297
1261.648926	51.400898	12.6477
1270.791382	51.456440	12.9052
1280.000000	51.515781	13.1083
1289.275391	51.545101	13.2102
1298.618042	51.559963	13.2956
1308.028320	51.562756	13.4336
1317.506836	51.560017	13.6260
1327.054077	51.555759	13.9116
1336.670410	51.559959	14.2486
1346.356567	51.587311	14.6203
1356.112793	51.627831	14.9887
1365.939697	51.679100	15.2961
1375.837891	51.732780	15.5838
1385.807739	51.770519	15.8928
1395.849854	51.819763	16.1680
1405.964844	51.914799	16.3810
1416.152954	52.017632	16.4918
1426.415039	52.104092	16.4011
1436.751465	52.165825	16.2585
1447.162720	52.169830	16.1894
1457.649414	52.165993	16.1719
1468.212158	52.203884	16.2545
1478.851440	52.252804	16.3497
1489.567871	52.301762	16.3456
1500.361816	52.339886	16.3618
1511.234131	52.329220	16.5343
1522.185059	52.339836	16.7054
1533.215454	52.469181	16.7477
1544.325806	52.599518	16.7004
1555.516602	52.612583	16.5178
1566.788574	52.603027	16.3297
1578.142090	52.639072	16.2936
1589.578003	52.685795	16.2841
1601.096680	52.729065	16.2175
1612.698975	52.772820	16.1215
1624.385254	52.816376	16.0022
1636.156250	52.859806	15.8418
1648.012451	52.908253	15.6099
1659.954590	52.945892	15.3500
1671.983398	52.951382	15.0885
1684.099243	52.946030	14.8479
1696.302856	52.945999	14.6716
1708.594971	52.945999	14.5236
1720.976196	52.945999	14.3900
1733.447144	52.945999	14.2467
1746.008423	52.956795	14.0228
1758.660645	52.946117	13.8445
1771.404663	52.859886	13.8251
1784.240967	52.773293	13.9363
1797.170288	52.758926	14.2347
1810.193359	52.772907	14.5777
1823.310791	52.796703	14.8173
1836.523193	52.824890	15.0222
1849.831421	52.840309	15.2173
1863.236084	52.859894	15.3903
1876.737793	52.901798	15.5377
1890.337524	52.945820	15.6565
1904.035645	52.974522	15.7256
1917.833008	52.996925	15.7957
1931.730469	53.011494	15.9282
1945.728638	53.032879	16.0714
1959.828125	53.083820	16.1933
1974.029907	53.138771	16.2936
1988.334473	53.174240	16.3477
2002.742798	53.205872	16.3978
2017.255493	53.240849	16.4885
2031.873291	53.281818	16.5886
2046.597168	53.333946	16.6935
2061.427734	53.396698	16.7658
2076.365479	53.474644	16.7739
2091.411865	53.557652	16.6955
2106.566895	53.644413	16.4625
2121.832031	53.712780	16.1802
2137.207764	53.723747	15.9326
2152.694824	53.725975	15.7188
2168.294189	53.765675	15.5861
2184.006592	53.812786	15.4725
2199.832764	53.847408	15.3274
2215.773682	53.883831	15.1627
2231.830078	53.933781	14.9814
2248.002686	53.985786	14.7610
2264.292725	54.035679	14.4539
2280.700684	54.072884	14.1373
2297.227539	54.073078	13.8799
