* Measurement data measured by REW V5.20 Beta 53
* Source: C:\Users\Napie\Music\REW\Top Speakers\New Folder\6-SP.txt
* Format: Comma/Tab/Space delimited data
* Dated: May 26, 2020 3:03:42 PM
* REW Settings:
*  C-weighting compensation: Off
*  Target level: 75.0 dB
* Note: ; Measurement imported from C:\Users\Napie\Music\REW\Top Speakers\New Folder\6-SP.txt Format: Comma/Tab/Space delimited data 623 values loaded, 5 Hz to 39,792 Hz log spaced 
* Measurement: 6-SP
* Smoothing: None
* Frequency Step: 1/96 octave
* Start Frequency: 20.000 Hz
*
* Freq(Hz)	SPL(dB)	Phase(degrees)
20.000000	61.325787	-109.7054
20.144928	61.548794	-110.3661
20.290907	61.771801	-111.0624
20.437943	62.001019	-111.8289
20.586044	62.217854	-112.6095
20.735220	62.394352	-113.3525
20.885475	62.564796	-114.0782
21.036821	62.772377	-114.8293
21.189262	62.962788	-115.4873
21.342808	63.054951	-115.8901
21.497467	63.171814	-116.2096
21.653246	63.462910	-116.5689
21.810154	63.768623	-116.9545
21.968201	63.925064	-117.3802
22.127390	64.092773	-117.8864
22.287735	64.444359	-118.5517
22.449242	64.781761	-119.2744
22.611917	64.893600	-120.0114
22.775772	64.990837	-120.6653
22.940815	65.251495	-121.0051
23.107054	65.564568	-121.3874
23.274498	65.886627	-122.1715
23.443153	66.191612	-123.1216
23.613033	66.415901	-124.1196
23.784142	66.628807	-125.1681
23.956491	66.894547	-126.1896
24.130091	67.165695	-127.3076
24.304947	67.427139	-128.7038
24.481071	67.645760	-130.1272
24.658470	67.740761	-131.3254
24.837156	67.839813	-132.4824
25.017136	68.104729	-133.7193
25.198421	68.353783	-134.9747
25.381020	68.406235	-136.2954
25.564941	68.418983	-137.4770
25.750195	68.506203	-138.2588
25.936790	68.616852	-138.8553
26.124741	68.735069	-139.4113
26.314051	68.868797	-139.8764
26.504732	69.005730	-140.1760
26.696796	69.190735	-140.5265
26.890253	69.501930	-141.1169
27.085112	69.827644	-141.9559
27.281382	70.074791	-143.2281
27.479073	70.264786	-144.5932
27.678198	70.359070	-145.7366
27.878765	70.444855	-146.7636
28.080786	70.619804	-147.6353
28.284271	70.814735	-148.4708
28.489231	70.980957	-149.3828
28.695675	71.153740	-150.3536
28.903616	71.363449	-151.3917
29.113064	71.576706	-152.5303
29.324028	71.766335	-153.8103
29.536524	71.943802	-155.2172
29.750557	72.127495	-156.8036
29.966141	72.269882	-158.4092
30.183289	72.295746	-159.8723
30.402010	72.305977	-161.2493
30.622314	72.412796	-162.5508
30.844217	72.507919	-163.7536
31.067726	72.477371	-164.8196
31.292856	72.449005	-165.8046
31.519617	72.558960	-166.7432
31.748020	72.669891	-167.6609
31.978081	72.657356	-168.6539
32.209808	72.617043	-169.5439
32.443211	72.608253	-170.1249
32.678310	72.616966	-170.5744
32.915108	72.660446	-171.0249
33.153625	72.703957	-171.4086
33.393871	72.709320	-171.7532
33.635857	72.704010	-171.9040
33.879597	72.670837	-171.5954
34.125103	72.705872	-171.1855
34.372387	72.955902	-170.9131
34.621464	73.252556	-170.8748
34.872345	73.460732	-171.3672
35.125042	73.625824	-172.0302
35.379574	73.733070	-172.5839
35.635948	73.828880	-173.0805
35.894180	73.960686	-173.4414
36.154285	74.110771	-173.7805
36.416275	74.277916	-174.1680
36.680161	74.459709	-174.6571
36.945961	74.670311	-175.3742
37.213688	74.858749	-176.1698
37.483353	74.951065	-176.9423
37.754974	75.029869	-177.6729
38.028561	75.167099	-178.2580
38.304131	75.321777	-178.8512
38.581699	75.484337	-179.6168
38.861279	75.631805	179.5802
39.142883	75.716072	178.8514
39.426529	75.802864	178.1050
39.712231	75.976692	177.2618
40.000000	76.133804	176.3953
40.289856	76.165993	175.5087
40.581814	76.169998	174.7340
40.875885	76.216103	174.2426
41.172089	76.276894	173.9204
41.470440	76.336258	173.7442
41.770950	76.429810	173.6102
42.073643	76.604828	173.4310
42.378525	76.810692	173.1335
42.685616	77.006981	172.6205
42.994934	77.209709	171.8772
43.306492	77.446480	170.8005
43.620308	77.642754	169.5580
43.936401	77.706200	168.2259
44.254780	77.717010	166.9768
44.575470	77.717316	166.0873
44.898483	77.729958	165.3222
45.223835	77.817184	164.5392
45.551544	77.902893	163.7322
45.881630	77.924629	162.7788
46.214108	77.903069	161.8862
46.548996	77.830078	161.2043
46.886307	77.730171	160.7844
47.226067	77.620110	160.7203
47.568283	77.515160	161.0351
47.912983	77.408630	161.8937
48.260181	77.382935	162.9642
48.609894	77.563766	164.0183
48.962143	77.815605	164.9069
49.316940	78.038094	165.3159
49.674313	78.249672	165.5118
50.034271	78.425484	165.6526
50.396843	78.595734	165.7518
50.762039	78.780998	165.9134
51.129883	78.985626	166.0239
51.500389	79.234863	165.9890
51.873581	79.486572	165.8543
52.249481	79.693405	165.6191
52.628101	79.895660	165.3295
53.009464	80.119919	165.0739
53.393593	80.360573	164.7257
53.780506	80.634842	164.1735
54.170223	80.900589	163.4583
54.562763	81.121735	162.5081
54.958145	81.296761	161.5515
55.356396	81.383553	160.8199
55.757530	81.467842	160.2349
56.161572	81.634384	159.8874
56.568542	81.844620	159.4978
56.978462	82.119461	158.7201
57.391350	82.364616	157.8406
57.807232	82.437904	157.0455
58.226128	82.502838	156.2933
58.648056	82.724785	155.6370
59.073048	82.958641	154.9771
59.501114	83.081322	154.1866
59.932281	83.189796	153.4004
60.366577	83.348946	152.7870
60.804020	83.533669	152.1203
61.244629	83.765617	151.1577
61.688435	83.968704	150.1128
62.135452	84.037796	149.0917
62.585712	84.080917	148.1764
63.039234	84.180313	147.5663
63.496040	84.309761	147.0159
63.956161	84.487877	146.3077
64.419617	84.661720	145.5544
64.886421	84.761406	144.7933
65.356621	84.855820	144.0344
65.830215	85.011581	143.3062
66.307251	85.166733	142.5884
66.787743	85.267342	141.8305
67.271713	85.354843	141.1511
67.759193	85.439629	140.7313
68.250206	85.561722	140.3348
68.744774	85.799179	139.7787
69.242928	86.048607	139.0803
69.744690	86.210617	138.1515
70.250084	86.349739	137.1260
70.759148	86.505333	136.1370
71.271896	86.654732	135.0990
71.788361	86.798752	133.9161
72.308571	86.905846	132.7501
72.832550	86.926193	131.6885
73.360321	86.915031	130.8602
73.891922	86.894638	130.5055
74.427376	86.914894	130.3781
74.966705	87.057236	130.3545
75.509949	87.249611	130.3042
76.057121	87.445496	130.0176
76.608261	87.648598	129.6089
77.163399	87.843857	129.1154
77.722557	88.041603	128.5602
78.285767	88.243271	128.0029
78.853058	88.460548	127.3704
79.424461	88.712418	126.6328
80.000000	88.978485	125.7180
80.579712	89.256981	124.5038
81.163628	89.510567	123.1088
81.751770	89.692505	121.5527
82.344177	89.828766	120.0110
82.940880	89.911041	118.7144
83.541901	89.995811	117.5193
84.147285	90.160912	116.3749
84.757050	90.334679	115.2302
85.371231	90.461777	113.9641
85.989868	90.569794	112.7354
86.612984	90.651886	111.7229
87.240616	90.756752	110.7480
87.872803	90.964447	109.6655
88.509560	91.174622	108.5503
89.150940	91.268379	107.4689
89.796967	91.379700	106.3035
90.447670	91.666023	104.9273
91.103088	91.940521	103.4312
91.763260	92.007988	101.8156
92.428215	92.047890	100.2260
93.097992	92.200340	98.9220
93.772614	92.391594	97.5639
94.452133	92.613564	95.8185
95.136566	92.807663	93.9220
95.825966	92.881325	91.9826
96.520363	92.927895	90.0550
97.219788	93.023346	88.2867
97.924286	93.128784	86.5077
98.633881	93.240852	84.5415
99.348625	93.327881	82.5529
100.068542	93.325966	80.6950
100.793686	93.327950	78.8296
101.524078	93.450119	76.8615
102.259766	93.559807	74.8131
103.000778	93.531181	72.6110
103.747162	93.457161	70.4500
104.498962	93.395187	68.5411
105.256203	93.328140	66.7652
106.018929	93.260574	65.0533
106.787186	93.184158	63.4639
107.561012	93.075363	62.0728
108.340446	92.984116	60.7610
109.125526	92.978806	59.4337
109.916290	92.981018	58.0934
110.712791	92.912453	56.7042
111.515060	92.840126	55.2869
112.323143	92.827583	53.8531
113.137085	92.808067	52.3960
113.956924	92.719810	50.8879
114.782700	92.610283	49.4037
115.614464	92.516159	48.0103
116.452255	92.409218	46.7043
117.296112	92.267471	45.4668
118.146095	92.108337	44.4099
119.002228	91.919609	43.7166
119.864563	91.768303	43.1574
120.733154	91.757599	42.5620
121.608040	91.767998	41.9334
122.489258	91.681213	41.1964
123.376869	91.594177	40.4179
124.270905	91.587555	39.6746
125.171425	91.594009	38.8625
126.078468	91.570381	37.8487
126.992081	91.523132	36.7952
127.912323	91.430771	35.8373
128.839233	91.334175	34.9248
129.772842	91.280289	34.0661
130.713242	91.230103	33.2187
131.660431	91.155769	32.3189
132.614502	91.070251	31.4374
133.575485	90.973984	30.6349
134.543427	90.877182	29.8784
135.518387	90.795708	29.1553
136.500412	90.713158	28.4643
137.489548	90.618965	27.7643
138.485855	90.511292	27.1613
139.489380	90.364639	26.7859
140.500168	90.239227	26.5255
141.518295	90.206528	26.3494
142.543793	90.207970	26.1396
143.576721	90.206062	25.7467
144.617142	90.208000	25.2343
145.665100	90.214058	24.5938
146.720642	90.208046	23.8949
147.783844	90.159569	23.2202
148.854752	90.111099	22.5238
149.933411	90.112236	21.7896
151.019897	90.112022	21.0089
152.114243	90.061157	20.1711
153.216522	90.003151	19.2676
154.326797	89.990433	18.2437
155.445114	89.948158	17.2272
156.571533	89.779526	16.3439
157.706116	89.601357	15.5477
158.848923	89.539383	14.8323
160.000000	89.472214	14.2024
161.159424	89.281860	13.6292
162.327255	89.081421	13.2067
163.503540	88.956596	13.1027
164.688354	88.874146	13.0691
165.881760	88.839989	12.9076
167.083801	88.821053	12.6339
168.294571	88.791039	12.1393
169.514099	88.735184	11.5992
170.742462	88.610771	11.1446
171.979736	88.475342	10.8027
173.225967	88.367096	10.7432
174.481232	88.302078	10.6703
175.745605	88.355682	10.2634
177.019119	88.388016	9.7622
178.301880	88.220840	9.3008
179.593933	88.042381	8.8810
180.895340	88.031227	8.6201
182.206177	88.042000	8.3049
183.526520	87.982262	7.6332
184.856430	87.868324	6.9853
186.195984	87.648521	6.7003
187.545227	87.435440	6.6071
188.904266	87.363373	6.6818
190.273132	87.317131	6.8167
191.651932	87.206245	6.8430
193.040726	87.088318	6.9186
194.439575	86.987434	7.1985
195.848572	86.915146	7.5271
197.267761	86.904182	7.8119
198.697250	86.914970	8.0156
200.137085	86.916435	8.0525
201.587372	86.915009	7.9763
203.048157	86.912910	7.7838
204.519531	86.892097	7.5607
206.001556	86.820717	7.3936
207.494324	86.742165	7.2772
208.997925	86.700645	7.2386
210.512405	86.663094	7.2659
212.037857	86.592468	7.3918
213.574371	86.544060	7.5078
215.122025	86.591156	7.5134
216.680893	86.643890	7.4144
218.251053	86.618935	7.1333
219.832581	86.568176	6.8198
221.425583	86.518013	6.6099
223.030121	86.463150	6.4703
224.646286	86.397469	6.4550
226.274170	86.349091	6.4362
227.913849	86.374313	6.2558
229.565399	86.383049	6.0554
231.228928	86.261497	5.9324
232.904510	86.135323	5.8641
234.592224	86.133041	5.8702
236.292191	86.135040	5.9218
238.004456	86.029488	5.9689
239.729126	85.918259	6.0945
241.466309	85.882988	6.4138
243.216080	85.875000	6.7831
244.978516	85.867935	7.0859
246.753738	85.874962	7.3523
248.541809	85.898026	7.6178
250.342850	85.944832	7.7509
252.156937	86.054909	7.5536
253.984161	86.134888	7.2578
255.824646	86.051010	7.0502
257.678467	85.962151	6.8724
259.545685	86.026779	6.8021
261.426483	86.115791	6.6157
263.320862	86.156715	5.9830
265.229004	86.135170	5.2978
267.150970	85.974579	4.8567
269.086853	85.789497	4.6273
271.036774	85.696861	4.6920
273.000824	85.615250	4.9988
274.979095	85.463661	5.5669
276.971710	85.355194	6.2649
278.978760	85.414680	7.0250
281.000336	85.528671	7.6736
283.036591	85.615326	7.9723
285.087585	85.701744	8.0461
287.153442	85.799057	7.9149
289.234283	85.874847	7.6578
291.330200	85.885826	7.3501
293.441284	85.875038	7.0248
295.567688	85.885674	6.7115
297.709503	85.875076	6.4954
299.866821	85.780647	6.5126
302.039795	85.704140	6.6405
304.228485	85.759087	6.8566
306.433044	85.849731	6.9948
308.653595	85.914963	6.8260
310.890228	85.961899	6.5140
313.143066	85.977928	6.1115
315.412231	85.962090	5.7269
317.697845	85.898018	5.4694
320.000000	85.819229	5.3909
322.318848	85.735764	5.6774
324.654510	85.701988	6.0370
327.007080	85.818756	6.2388
329.376709	85.957619	6.2802
331.763519	85.997742	6.0331
334.167603	86.013962	5.6443
336.589142	86.063446	5.1854
339.028198	86.081032	4.7561
341.484924	85.985321	4.4800
343.959473	85.880249	4.3581
346.451935	85.861687	4.4871
348.962463	85.874939	4.7024
351.491211	85.888435	4.8871
354.038239	85.926849	4.9929
356.603760	86.026627	4.9056
359.187866	86.121758	4.7067
361.790680	86.134430	4.4233
364.412354	86.134995	4.1069
367.053040	86.181099	3.8477
369.712860	86.234840	3.5560
372.391968	86.272209	3.1761
375.090454	86.307899	2.6935
377.808533	86.367233	2.0316
380.546265	86.395004	1.3201
383.303864	86.324585	0.6049
386.081451	86.214348	0.0632
388.879150	86.078613	-0.0104
391.697144	85.984169	0.0786
394.535522	86.042068	0.1481
397.394501	86.134750	0.1154
400.274170	86.164246	-0.2088
403.174744	86.179962	-0.6863
406.096313	86.209183	-1.2347
409.039062	86.222000	-1.8729
412.003113	86.202888	-2.6651
414.988647	86.135315	-3.3939
417.995850	85.968018	-3.8573
421.024811	85.789528	-4.0697
424.075714	85.675209	-3.8787
427.148743	85.615089	-3.5859
430.244049	85.647469	-3.4481
433.361786	85.701836	-3.4547
436.502106	85.712875	-3.7230
439.665161	85.702072	-4.1216
442.851166	85.676117	-4.5979
446.060242	85.615250	-5.0298
449.292572	85.479576	-5.2751
452.548340	85.335403	-5.3422
455.827698	85.241234	-5.1285
459.130798	85.182129	-4.8250
462.457855	85.172676	-4.5856
465.809021	85.181953	-4.4204
469.184448	85.186317	-4.4276
472.584381	85.178055	-4.4948
476.008911	85.131660	-4.5466
479.458252	85.077171	-4.5680
482.932617	85.041161	-4.5162
486.432159	85.009102	-4.3995
489.957031	84.958939	-4.1552
493.507477	84.938980	-3.9534
497.083618	85.029938	-3.9790
500.685699	85.113808	-4.1283
504.313873	85.058929	-4.3763
507.968323	84.984207	-4.6691
511.649292	85.002563	-4.9516
515.356934	85.004082	-5.2023
519.091370	84.880104	-5.4142
522.852966	84.736443	-5.4890
526.641724	84.654160	-5.2594
530.458008	84.602119	-4.9242
534.301941	84.580162	-4.6296
538.173706	84.574997	-4.3718
542.073547	84.573311	-4.1982
546.001648	84.574989	-4.0982
549.958191	84.580299	-4.0933
553.943420	84.575043	-4.1328
557.957520	84.538147	-4.1807
562.000671	84.490158	-4.2140
566.073181	84.447708	-4.1907
570.175171	84.402161	-4.1312
574.306885	84.350868	-4.0583
578.468567	84.292213	-3.9246
582.660400	84.212082	-3.6512
586.882568	84.145172	-3.3550
591.135376	84.155968	-3.1969
595.419006	84.142151	-2.9690
599.733643	83.963829	-2.4917
604.079590	83.795456	-1.8356
608.456970	83.813828	-0.9521
612.866089	83.876785	-0.0211
617.307190	83.873810	0.7620
621.780457	83.881927	1.4897
626.286133	83.963570	2.1846
630.824463	84.054718	2.8657
635.395691	84.083023	3.5774
640.000000	84.133736	4.2657
644.637695	84.294182	4.9294
649.309021	84.488319	5.4546
654.014160	84.657166	5.7250
658.753418	84.834366	5.7434
663.527039	85.061333	5.4248
668.335205	85.257454	4.9169
673.178284	85.321930	4.3183
678.056396	85.354881	3.6951
682.969849	85.442390	3.1815
687.918945	85.528725	2.6718
692.903870	85.577301	2.0931
697.924927	85.614868	1.4772
702.982422	85.666466	0.8214
708.076477	85.701920	0.1573
713.207520	85.688217	-0.4973
718.375732	85.658112	-1.1030
723.581360	85.633820	-1.5831
728.824707	85.615051	-2.0304
734.106079	85.617485	-2.5190
739.425720	85.615028	-3.0311
744.783936	85.579277	-3.5699
750.180908	85.532181	-4.1449
755.617065	85.505707	-4.8120
761.092529	85.442337	-5.4349
766.607727	85.268654	-5.9277
772.162903	85.062737	-6.1915
777.758301	84.879425	-6.0392
783.394287	84.717522	-5.6497
789.071045	84.609291	-5.1725
794.789001	84.508385	-4.5137
800.548340	84.351730	-3.6276
806.349487	84.220360	-2.5143
812.192627	84.177521	-1.0594
818.078125	84.215714	0.4388
824.006226	84.372223	1.7156
829.977295	84.575256	2.7797
835.991699	84.751732	3.5348
842.049622	84.941277	4.0366
848.151428	85.172249	4.3151
854.297485	85.407150	4.3533
860.488098	85.613396	4.1255
866.723572	85.803329	3.6870
873.004211	85.984940	3.0645
879.330322	86.139496	2.3198
885.702332	86.239998	1.5225
892.120483	86.318733	0.6761
898.585144	86.411385	-0.2072
905.096680	86.481804	-1.0838
911.655396	86.486832	-1.8986
918.261597	86.482002	-2.6742
924.915710	86.524834	-3.3982
931.618042	86.567871	-4.1213
938.368896	86.573380	-4.8984
945.168762	86.568031	-5.7050
952.017822	86.578804	-6.5544
958.916504	86.568100	-7.3859
965.865234	86.490776	-8.1550
972.864319	86.395355	-8.8247
979.914062	86.320259	-9.3059
987.014954	86.252243	-9.7096
994.167236	86.206375	-10.1882
1001.371399	86.135345	-10.5322
1008.627747	85.950050	-10.5315
1015.936646	85.789505	-10.3332
1023.298584	85.804764	-9.9473
1030.713867	85.874748	-9.5790
1038.182739	85.912910	-9.4648
1045.705933	85.961746	-9.5233
1053.283447	86.053535	-9.7692
1060.916016	86.134720	-10.1481
1068.603882	86.145828	-10.6373
1076.347412	86.135063	-11.1559
1084.147095	86.135002	-11.5912
1092.003296	86.135002	-12.0145
1099.916382	86.135002	-12.4508
1107.886841	86.135002	-12.9299
1115.915039	86.145798	-13.5209
1124.001343	86.135101	-14.1318
1132.146362	86.060837	-14.7214
1140.350342	85.962395	-15.2034
1148.613770	85.859833	-15.4379
1156.937134	85.770325	-15.5438
1165.320801	85.729576	-15.5939
1173.765137	85.702118	-15.5911
1182.270752	85.649025	-15.5420
1190.838013	85.615059	-15.5070
1199.467285	85.652870	-15.5364
1208.159180	85.701828	-15.6692
1216.913940	85.717438	-16.0307
1225.732178	85.702126	-16.4137
1234.614380	85.622261	-16.6337
1243.560913	85.542252	-16.7428
1252.572266	85.525299	-16.6723
1261.648926	85.542862	-16.6041
1270.791382	85.597565	-16.7142
1280.000000	85.657776	-16.9558
1289.275391	85.687843	-17.3604
1298.618042	85.701973	-17.8657
1308.028320	85.708458	-18.4431
1317.506836	85.690155	-19.0226
1327.054077	85.622147	-19.5464
1336.670410	85.535362	-19.9488
1346.356567	85.440880	-20.0814
1356.112793	85.374153	-20.1328
1365.939697	85.397774	-20.2227
1375.837891	85.441833	-20.4149
1385.807739	85.454498	-20.8630
1395.849854	85.442108	-21.4177
1405.964844	85.395058	-22.0261
1416.152954	85.310387	-22.5464
1426.415039	85.157280	-22.7830
1436.751465	85.009491	-22.8430
1447.162720	84.957649	-22.7693
1457.649414	84.922165	-22.5640
1468.212158	84.814201	-22.1924
1478.851440	84.749084	-21.8074
1489.567871	84.860138	-21.5117
1500.361816	85.008446	-21.4247
1511.234131	85.081696	-21.7578
1522.185059	85.128838	-22.3389
1533.215454	85.184532	-23.1438
1544.325806	85.182205	-23.9368
1555.516602	85.012627	-24.4426
1566.788574	84.835632	-24.7521
1578.142090	84.818649	-24.8113
1589.578003	84.834938	-24.7842
1601.096680	84.781395	-24.8108
1612.698975	84.749039	-24.9114
1624.385254	84.829712	-25.1304
1636.156250	84.921638	-25.5317
1648.012451	84.943619	-26.2725
1659.954590	84.922157	-27.1198
1671.983398	84.846725	-27.8801
1684.099243	84.749420	-28.5862
1696.302856	84.667801	-29.2034
1708.594971	84.575462	-29.7438
1720.976196	84.450974	-30.2227
1733.447144	84.315613	-30.5967
1746.008423	84.180130	-30.7950
1758.660645	84.055481	-30.9136
1771.404663	83.974205	-31.0716
1784.240967	83.882439	-31.1311
1797.170288	83.695679	-30.9453
1810.193359	83.536469	-30.6542
1823.310791	83.538116	-30.2761
1836.523193	83.587776	-30.0344
1849.831421	83.621727	-30.2542
1863.236084	83.622124	-30.6530
1876.737793	83.530502	-31.0804
1890.337524	83.405579	-31.4567
1904.035645	83.286362	-31.6041
1917.833008	83.175415	-31.6669
1931.730469	83.099236	-31.7310
1945.728638	83.024353	-31.7987
1959.828125	82.924927	-31.9370
1974.029907	82.803581	-32.0358
1988.334473	82.650818	-32.0425
2002.742798	82.477745	-31.8494
2017.255493	82.267929	-31.2693
2031.873291	82.094559	-30.4855
2046.597168	82.048347	-29.5482
