"SPL Horizontal"																																																																							
"On-Axis"		"10°"		"-10°"		"20°"		"-20°"		"30°"		"-30°"		"40°"		"-40°"		"50°"		"-50°"		"60°"		"-60°"		"70°"		"-70°"		"80°"		"-80°"		"90°"		"-90°"		"100°"		"-100°"		"110°"		"-110°"		"120°"		"-120°"		"130°"		"-130°"		"140°"		"-140°"		"150°"		"-150°"		"160°"		"-160°"		"170°"		"-170°"		"180°"	
"Frequency [Hz]"	"Sound Pessure Level [dB]  / [2.83V 1m] "	"Frequency [Hz]"	"Sound Pessure Level [dB]  / [2.83V 1m] "	"Frequency [Hz]"	"Sound Pessure Level [dB]  / [2.83V 1m] "	"Frequency [Hz]"	"Sound Pessure Level [dB]  / [2.83V 1m] "	"Frequency [Hz]"	"Sound Pessure Level [dB]  / [2.83V 1m] "	"Frequency [Hz]"	"Sound Pessure Level [dB]  / [2.83V 1m] "	"Frequency [Hz]"	"Sound Pessure Level [dB]  / [2.83V 1m] "	"Frequency [Hz]"	"Sound Pessure Level [dB]  / [2.83V 1m] "	"Frequency [Hz]"	"Sound Pessure Level [dB]  / [2.83V 1m] "	"Frequency [Hz]"	"Sound Pessure Level [dB]  / [2.83V 1m] "	"Frequency [Hz]"	"Sound Pessure Level [dB]  / [2.83V 1m] "	"Frequency [Hz]"	"Sound Pessure Level [dB]  / [2.83V 1m] "	"Frequency [Hz]"	"Sound Pessure Level [dB]  / [2.83V 1m] "	"Frequency [Hz]"	"Sound Pessure Level [dB]  / [2.83V 1m] "	"Frequency [Hz]"	"Sound Pessure Level [dB]  / [2.83V 1m] "	"Frequency [Hz]"	"Sound Pessure Level [dB]  / [2.83V 1m] "	"Frequency [Hz]"	"Sound Pessure Level [dB]  / [2.83V 1m] "	"Frequency [Hz]"	"Sound Pessure Level [dB]  / [2.83V 1m] "	"Frequency [Hz]"	"Sound Pessure Level [dB]  / [2.83V 1m] "	"Frequency [Hz]"	"Sound Pessure Level [dB]  / [2.83V 1m] "	"Frequency [Hz]"	"Sound Pessure Level [dB]  / [2.83V 1m] "	"Frequency [Hz]"	"Sound Pessure Level [dB]  / [2.83V 1m] "	"Frequency [Hz]"	"Sound Pessure Level [dB]  / [2.83V 1m] "	"Frequency [Hz]"	"Sound Pessure Level [dB]  / [2.83V 1m] "	"Frequency [Hz]"	"Sound Pessure Level [dB]  / [2.83V 1m] "	"Frequency [Hz]"	"Sound Pessure Level [dB]  / [2.83V 1m] "	"Frequency [Hz]"	"Sound Pessure Level [dB]  / [2.83V 1m] "	"Frequency [Hz]"	"Sound Pessure Level [dB]  / [2.83V 1m] "	"Frequency [Hz]"	"Sound Pessure Level [dB]  / [2.83V 1m] "	"Frequency [Hz]"	"Sound Pessure Level [dB]  / [2.83V 1m] "	"Frequency [Hz]"	"Sound Pessure Level [dB]  / [2.83V 1m] "	"Frequency [Hz]"	"Sound Pessure Level [dB]  / [2.83V 1m] "	"Frequency [Hz]"	"Sound Pessure Level [dB]  / [2.83V 1m] "	"Frequency [Hz]"	"Sound Pessure Level [dB]  / [2.83V 1m] "	"Frequency [Hz]"	"Sound Pessure Level [dB]  / [2.83V 1m] "	"Frequency [Hz]"	"Sound Pessure Level [dB]  / [2.83V 1m] "
20.5078	56.3021	20.5078	56.2504	20.5078	56.3454	20.5078	56.1909	20.5078	56.3795	20.5078	56.1249	20.5078	56.4041	20.5078	56.0541	20.5078	56.4189	20.5078	55.9806	20.5078	56.4235	20.5078	55.9067	20.5078	56.4178	20.5078	55.8349	20.5078	56.4019	20.5078	55.7681	20.5078	56.3764	20.5078	55.7092	20.5078	56.3419	20.5078	55.661	20.5078	56.2994	20.5078	55.6259	20.5078	56.2498	20.5078	55.6059	20.5078	56.1938	20.5078	55.6018	20.5078	56.1322	20.5078	55.6136	20.5078	56.0662	20.5078	55.6402	20.5078	55.997	20.5078	55.68	20.5078	55.9264	20.5078	55.731	20.5078	55.8569	20.5078	55.7909
21.9727	55.9901	21.9727	56.0384	21.9727	55.9387	21.9727	56.083	21.9727	55.8846	21.9727	56.1237	21.9727	55.8282	21.9727	56.1603	21.9727	55.7698	21.9727	56.1928	21.9727	55.71	21.9727	56.2207	21.9727	55.6502	21.9727	56.2434	21.9727	55.5936	21.9727	56.2598	21.9727	55.5448	21.9727	56.2688	21.9727	55.5092	21.9727	56.2693	21.9727	55.4919	21.9727	56.2605	21.9727	55.4964	21.9727	56.2421	21.9727	55.523	21.9727	56.2139	21.9727	55.5697	21.9727	56.1759	21.9727	55.632	21.9727	56.1286	21.9727	55.7046	21.9727	56.0724	21.9727	55.7824	21.9727	56.0081	21.9727	55.861	21.9727	55.937
23.4375	58.0925	23.4375	58.0516	23.4375	58.128	23.4375	58.0063	23.4375	58.1577	23.4375	57.9582	23.4375	58.1813	23.4375	57.9093	23.4375	58.1991	23.4375	57.8623	23.4375	58.2115	23.4375	57.8191	23.4375	58.2193	23.4375	57.7815	23.4375	58.2237	23.4375	57.7506	23.4375	58.2258	23.4375	57.7271	23.4375	58.2264	23.4375	57.7118	23.4375	58.225	23.4375	57.7055	23.4375	58.2201	23.4375	57.7093	23.4375	58.2093	23.4375	57.7241	23.4375	58.1898	23.4375	57.7503	23.4375	58.16	23.4375	57.7878	23.4375	58.1193	23.4375	57.8352	23.4375	58.0688	23.4375	57.8905	23.4375	58.0113	23.4375	57.9505
24.9023	58.3184	24.9023	58.2925	24.9023	58.3425	24.9023	58.2652	24.9023	58.3637	24.9023	58.237	24.9023	58.3811	24.9023	58.2084	24.9023	58.3934	24.9023	58.1801	24.9023	58.3996	24.9023	58.1528	24.9023	58.3992	24.9023	58.1272	24.9023	58.3921	24.9023	58.1041	24.9023	58.3793	24.9023	58.0844	24.9023	58.362	24.9023	58.0689	24.9023	58.3415	24.9023	58.0582	24.9023	58.319	24.9023	58.0532	24.9023	58.2953	24.9023	58.0543	24.9023	58.2706	24.9023	58.0614	24.9023	58.2449	24.9023	58.0742	24.9023	58.2185	24.9023	58.092	24.9023	58.1915	24.9023	58.1137	24.9023	58.1645	24.9023	58.1382
26.3672	59.3607	26.3672	59.3434	26.3672	59.3713	26.3672	59.3201	26.3672	59.3753	26.3672	59.2915	26.3672	59.3724	26.3672	59.2589	26.3672	59.363	26.3672	59.2238	26.3672	59.3473	26.3672	59.1876	26.3672	59.326	26.3672	59.1516	26.3672	59.2996	26.3672	59.1169	26.3672	59.2692	26.3672	59.0839	26.3672	59.2355	26.3672	59.0531	26.3672	59.1994	26.3672	59.0248	26.3672	59.1619	26.3672	58.9994	26.3672	59.1236	26.3672	58.9774	26.3672	59.0858	26.3672	58.9598	26.3672	59.0495	26.3672	58.9474	26.3672	59.0164	26.3672	58.9412	26.3672	58.988	26.3672	58.9419	26.3672	58.9655	26.3672	58.95
27.832	60.0118	27.832	60.0101	27.832	60.0086	27.832	60.0029	27.832	60.001	27.832	59.9898	27.832	59.989	27.832	59.9704	27.832	59.9728	27.832	59.9445	27.832	59.9523	27.832	59.9123	27.832	59.9277	27.832	59.8745	27.832	59.8995	27.832	59.8325	27.832	59.8686	27.832	59.7881	27.832	59.8359	27.832	59.7436	27.832	59.8025	27.832	59.7013	27.832	59.7695	27.832	59.6634	27.832	59.7375	27.832	59.6318	27.832	59.7072	27.832	59.608	27.832	59.6788	27.832	59.5926	27.832	59.6528	27.832	59.5858	27.832	59.6297	27.832	59.5872	27.832	59.6103	27.832	59.5957
29.2969	60.5935	29.2969	60.5927	29.2969	60.5909	29.2969	60.5884	29.2969	60.5848	29.2969	60.5808	29.2969	60.5751	29.2969	60.5698	29.2969	60.5619	29.2969	60.5555	29.2969	60.5451	29.2969	60.538	29.2969	60.5251	29.2969	60.5175	29.2969	60.5024	29.2969	60.494	29.2969	60.4776	29.2969	60.4683	29.2969	60.452	29.2969	60.4411	29.2969	60.4263	29.2969	60.4135	29.2969	60.4018	29.2969	60.387	29.2969	60.3792	29.2969	60.363	29.2969	60.3591	29.2969	60.3426	29.2969	60.342	29.2969	60.3267	29.2969	60.3281	29.2969	60.3157	29.2969	60.3176	29.2969	60.3096	29.2969	60.3109	29.2969	60.3081
30.7617	61.1755	30.7617	61.1845	30.7617	61.1632	30.7617	61.1901	30.7617	61.1481	30.7617	61.1925	30.7617	61.1306	30.7617	61.1919	30.7617	61.1114	30.7617	61.1887	30.7617	61.0915	30.7617	61.1829	30.7617	61.0714	30.7617	61.1748	30.7617	61.052	30.7617	61.1642	30.7617	61.0339	30.7617	61.151	30.7617	61.0179	30.7617	61.1356	30.7617	61.0043	30.7617	61.1181	30.7617	60.9936	30.7617	61.099	30.7617	60.9858	30.7617	61.0792	30.7617	60.9807	30.7617	61.0594	30.7617	60.9784	30.7617	61.0405	30.7617	60.9786	30.7617	61.0232	30.7617	60.9816	30.7617	61.0084	30.7617	60.9875	30.7617	60.9964
32.2266	62.1602	32.2266	62.1632	32.2266	62.1534	32.2266	62.1622	32.2266	62.1431	32.2266	62.1572	32.2266	62.1295	32.2266	62.148	32.2266	62.1127	32.2266	62.1347	32.2266	62.093	32.2266	62.1177	32.2266	62.0706	32.2266	62.0974	32.2266	62.0463	32.2266	62.0743	32.2266	62.0207	32.2266	62.049	32.2266	61.9947	32.2266	62.0224	32.2266	61.9694	32.2266	61.9953	32.2266	61.9455	32.2266	61.9687	32.2266	61.9238	32.2266	61.9435	32.2266	61.905	32.2266	61.9207	32.2266	61.8894	32.2266	61.9012	32.2266	61.8775	32.2266	61.8856	32.2266	61.8698	32.2266	61.8744	32.2266	61.8665	32.2266	61.868
33.6914	62.8967	33.6914	62.8876	33.6914	62.8981	33.6914	62.8712	33.6914	62.8919	33.6914	62.8477	33.6914	62.8782	33.6914	62.818	33.6914	62.8574	33.6914	62.7827	33.6914	62.8298	33.6914	62.7428	33.6914	62.796	33.6914	62.6994	33.6914	62.7565	33.6914	62.6535	33.6914	62.7123	33.6914	62.6062	33.6914	62.6643	33.6914	62.5589	33.6914	62.6141	33.6914	62.513	33.6914	62.5633	33.6914	62.4699	33.6914	62.5139	33.6914	62.4312	33.6914	62.4679	33.6914	62.3981	33.6914	62.4271	33.6914	62.3719	33.6914	62.3932	33.6914	62.3535	33.6914	62.3674	33.6914	62.3435	33.6914	62.3503	33.6914	62.3423
35.1562	63.2836	35.1562	63.2831	35.1562	63.28	35.1562	63.278	35.1562	63.2726	35.1562	63.268	35.1562	63.2619	35.1562	63.2531	35.1562	63.248	35.1562	63.2335	35.1562	63.2312	35.1562	63.2094	35.1562	63.2115	35.1562	63.1816	35.1562	63.189	35.1562	63.1508	35.1562	63.1639	35.1562	63.1182	35.1562	63.1367	35.1562	63.0851	35.1562	63.1082	35.1562	63.0529	35.1562	63.0792	35.1562	63.0229	35.1562	63.0509	35.1562	62.9964	35.1562	63.0244	35.1562	62.9745	35.1562	63.0005	35.1562	62.958	35.1562	62.98	35.1562	62.9475	35.1562	62.9635	35.1562	62.943	35.1562	62.9515	35.1562	62.9445
36.6211	63.8839	36.6211	63.8812	36.6211	63.8829	36.6211	63.8748	36.6211	63.8785	36.6211	63.8647	36.6211	63.8706	36.6211	63.8507	36.6211	63.8591	36.6211	63.8332	36.6211	63.844	36.6211	63.8123	36.6211	63.8252	36.6211	63.7886	36.6211	63.8027	36.6211	63.7625	36.6211	63.7767	36.6211	63.735	36.6211	63.7476	36.6211	63.7069	36.6211	63.7165	36.6211	63.679	36.6211	63.6846	36.6211	63.6524	36.6211	63.6537	36.6211	63.6279	36.6211	63.6254	36.6211	63.6063	36.6211	63.6014	36.6211	63.5884	36.6211	63.5826	36.6211	63.5747	36.6211	63.5696	36.6211	63.5655	36.6211	63.5626	36.6211	63.5614
38.0859	64.4449	38.0859	64.4421	38.0859	64.4428	38.0859	64.4344	38.0859	64.436	38.0859	64.4216	38.0859	64.4248	38.0859	64.404	38.0859	64.4095	38.0859	64.3819	38.0859	64.3905	38.0859	64.3557	38.0859	64.3685	38.0859	64.3261	38.0859	64.3439	38.0859	64.294	38.0859	64.3176	38.0859	64.2603	38.0859	64.2902	38.0859	64.2263	38.0859	64.2623	38.0859	64.1934	38.0859	64.2346	38.0859	64.1629	38.0859	64.2075	38.0859	64.1364	38.0859	64.1818	38.0859	64.1151	38.0859	64.1578	38.0859	64.0999	38.0859	64.1364	38.0859	64.0914	38.0859	64.118	38.0859	64.0895	38.0859	64.1035	38.0859	64.0938
39.5508	65.3303	39.5508	65.327	39.5508	65.3304	39.5508	65.3203	39.5508	65.3275	39.5508	65.3102	39.5508	65.3218	39.5508	65.2969	39.5508	65.3134	39.5508	65.2806	39.5508	65.3023	39.5508	65.2619	39.5508	65.2884	39.5508	65.2413	39.5508	65.2719	39.5508	65.219	39.5508	65.2529	39.5508	65.1954	39.5508	65.2318	39.5508	65.1708	39.5508	65.2091	39.5508	65.1456	39.5508	65.1853	39.5508	65.1209	39.5508	65.1613	39.5508	65.0978	39.5508	65.1374	39.5508	65.0779	39.5508	65.1146	39.5508	65.0627	39.5508	65.0937	39.5508	65.0531	39.5508	65.0756	39.5508	65.0497	39.5508	65.0616	39.5508	65.0527
41.0156	65.7492	41.0156	65.7779	41.0156	65.7143	41.0156	65.7993	41.0156	65.6744	41.0156	65.8124	41.0156	65.6301	41.0156	65.8163	41.0156	65.5821	41.0156	65.8111	41.0156	65.531	41.0156	65.7968	41.0156	65.4773	41.0156	65.7737	41.0156	65.422	41.0156	65.742	41.0156	65.3662	41.0156	65.7015	41.0156	65.3115	41.0156	65.6521	41.0156	65.2599	41.0156	65.5938	41.0156	65.2133	41.0156	65.528	41.0156	65.1735	41.0156	65.4569	41.0156	65.1421	41.0156	65.3841	41.0156	65.1205	41.0156	65.3135	41.0156	65.1099	41.0156	65.2495	41.0156	65.1112	41.0156	65.1954	41.0156	65.1256	41.0156	65.1537
42.4805	66.0417	42.4805	66.0517	42.4805	66.026	42.4805	66.0557	42.4805	66.0044	42.4805	66.0535	42.4805	65.9773	42.4805	66.0447	42.4805	65.945	42.4805	66.0286	42.4805	65.908	42.4805	66.0047	42.4805	65.8669	42.4805	65.9727	42.4805	65.8225	42.4805	65.9333	42.4805	65.7761	42.4805	65.8881	42.4805	65.7292	42.4805	65.8396	42.4805	65.6838	42.4805	65.7907	42.4805	65.6421	42.4805	65.744	42.4805	65.6066	42.4805	65.7016	42.4805	65.5789	42.4805	65.6645	42.4805	65.5602	42.4805	65.6327	42.4805	65.5505	42.4805	65.606	42.4805	65.5492	42.4805	65.5842	42.4805	65.5551	42.4805	65.5671
43.9453	66.999	43.9453	66.987	43.9453	67.0038	43.9453	66.9682	43.9453	67.0009	43.9453	66.9431	43.9453	66.99	43.9453	66.912	43.9453	66.9706	43.9453	66.8755	43.9453	66.9428	43.9453	66.8345	43.9453	66.9067	43.9453	66.7899	43.9453	66.8632	43.9453	66.7435	43.9453	66.8137	43.9453	66.6972	43.9453	66.7602	43.9453	66.6529	43.9453	66.7053	43.9453	66.6123	43.9453	66.652	43.9453	66.5767	43.9453	66.603	43.9453	66.5467	43.9453	66.5608	43.9453	66.5224	43.9453	66.527	43.9453	66.5035	43.9453	66.5023	43.9453	66.4895	43.9453	66.4862	43.9453	66.4804	43.9453	66.478	43.9453	66.4763
45.4102	67.7586	45.4102	67.7537	45.4102	67.7563	45.4102	67.7415	45.4102	67.7468	45.4102	67.7225	45.4102	67.7303	45.4102	67.6972	45.4102	67.7074	45.4102	67.6663	45.4102	67.6787	45.4102	67.6308	45.4102	67.6451	45.4102	67.5919	45.4102	67.6076	45.4102	67.5511	45.4102	67.5676	45.4102	67.5098	45.4102	67.5266	45.4102	67.47	45.4102	67.4863	45.4102	67.4331	45.4102	67.4485	45.4102	67.4007	45.4102	67.4147	45.4102	67.3735	45.4102	67.3858	45.4102	67.3522	45.4102	67.3625	45.4102	67.3366	45.4102	67.3446	45.4102	67.3265	45.4102	67.332	45.4102	67.3213	45.4102	67.3241	45.4102	67.3205
46.875	68.1572	46.875	68.1514	46.875	68.1568	46.875	68.1394	46.875	68.1499	46.875	68.1214	46.875	68.1365	46.875	68.0978	46.875	68.1167	46.875	68.0691	46.875	68.0908	46.875	68.0359	46.875	68.0592	46.875	67.9992	46.875	68.0228	46.875	67.9602	46.875	67.9825	46.875	67.9201	46.875	67.9399	46.875	67.8804	46.875	67.8966	46.875	67.8426	46.875	67.8544	46.875	67.8077	46.875	67.8152	46.875	67.7769	46.875	67.7805	46.875	67.7507	46.875	67.7514	46.875	67.7297	46.875	67.7287	46.875	67.7142	46.875	67.7128	46.875	67.7046	46.875	67.7036	46.875	67.7009
48.3398	68.7183	48.3398	68.7195	48.3398	68.7117	48.3398	68.715	48.3398	68.7	48.3398	68.7047	48.3398	68.6835	48.3398	68.6884	48.3398	68.6627	48.3398	68.6665	48.3398	68.638	48.3398	68.6392	48.3398	68.6098	48.3398	68.6074	48.3398	68.5786	48.3398	68.5719	48.3398	68.545	48.3398	68.5341	48.3398	68.5099	48.3398	68.4954	48.3398	68.4741	48.3398	68.4572	48.3398	68.4389	48.3398	68.4211	48.3398	68.4055	48.3398	68.3882	48.3398	68.3754	48.3398	68.3598	48.3398	68.3495	48.3398	68.3365	48.3398	68.3288	48.3398	68.3192	48.3398	68.314	48.3398	68.3081	48.3398	68.3054	48.3398	68.3035
51.2695	69.6528	51.2695	69.6448	51.2695	69.6546	51.2695	69.6308	51.2695	69.6502	51.2695	69.611	51.2695	69.64	51.2695	69.586	51.2695	69.6243	51.2695	69.5565	51.2695	69.6035	51.2695	69.5235	51.2695	69.5784	51.2695	69.4882	51.2695	69.5498	51.2695	69.4519	51.2695	69.5185	51.2695	69.4161	51.2695	69.4857	51.2695	69.382	51.2695	69.4525	51.2695	69.3509	51.2695	69.4198	51.2695	69.3239	51.2695	69.3889	51.2695	69.3017	51.2695	69.3604	51.2695	69.2849	51.2695	69.3351	51.2695	69.2736	51.2695	69.3132	51.2695	69.2678	51.2695	69.2953	51.2695	69.2674	51.2695	69.2815	51.2695	69.2721
52.7344	70.0859	52.7344	70.0822	52.7344	70.0829	52.7344	70.0717	52.7344	70.0734	52.7344	70.0545	52.7344	70.058	52.7344	70.0313	52.7344	70.0373	52.7344	70.0029	52.7344	70.0123	52.7344	69.9704	52.7344	69.984	52.7344	69.9352	52.7344	69.9533	52.7344	69.899	52.7344	69.9216	52.7344	69.8633	52.7344	69.8899	52.7344	69.8296	52.7344	69.8593	52.7344	69.7991	52.7344	69.8308	52.7344	69.7728	52.7344	69.8051	52.7344	69.7514	52.7344	69.7825	52.7344	69.735	52.7344	69.7631	52.7344	69.7237	52.7344	69.747	52.7344	69.7174	52.7344	69.734	52.7344	69.7157	52.7344	69.7244	52.7344	69.7182
54.1992	70.3938	54.1992	70.398	54.1992	70.3828	54.1992	70.3951	54.1992	70.3653	54.1992	70.3854	54.1992	70.3419	54.1992	70.3693	54.1992	70.3135	54.1992	70.3476	54.1992	70.2809	54.1992	70.3212	54.1992	70.2455	54.1992	70.2913	54.1992	70.2085	54.1992	70.2591	54.1992	70.1712	54.1992	70.2258	54.1992	70.1352	54.1992	70.1927	54.1992	70.1019	54.1992	70.1607	54.1992	70.0724	54.1992	70.1306	54.1992	70.0478	54.1992	70.103	54.1992	70.0286	54.1992	70.0783	54.1992	70.015	54.1992	70.0567	54.1992	70.007	54.1992	70.0385	54.1992	70.0042	54.1992	70.0239	54.1992	70.0064	54.1992	70.0131
55.6641	70.9771	55.6641	70.9859	55.6641	70.9603	55.6641	70.9866	55.6641	70.936	55.6641	70.9792	55.6641	70.9049	55.6641	70.9641	55.6641	70.8682	55.6641	70.9418	55.6641	70.8271	55.6641	70.9131	55.6641	70.7829	55.6641	70.8789	55.6641	70.737	55.6641	70.8401	55.6641	70.691	55.6641	70.798	55.6641	70.6462	55.6641	70.7538	55.6641	70.604	55.6641	70.7089	55.6641	70.5658	55.6641	70.6647	55.6641	70.5328	55.6641	70.6225	55.6641	70.5058	55.6641	70.5835	55.6641	70.4858	55.6641	70.5489	55.6641	70.473	55.6641	70.5196	55.6641	70.4678	55.6641	70.4964	55.6641	70.4701	55.6641	70.4797
58.5938	72.0842	58.5938	72.0856	58.5938	72.0768	58.5938	72.0812	58.5938	72.0637	58.5938	72.0711	58.5938	72.0448	58.5938	72.0556	58.5938	72.0207	58.5938	72.035	58.5938	71.992	58.5938	72.01	58.5938	71.9594	58.5938	71.9813	58.5938	71.9242	58.5938	71.9498	58.5938	71.8876	58.5938	71.9167	58.5938	71.851	58.5938	71.8832	58.5938	71.8162	58.5938	71.8503	58.5938	71.7844	58.5938	71.8193	58.5938	71.7569	58.5938	71.7909	58.5938	71.7346	58.5938	71.7659	58.5938	71.7179	58.5938	71.7447	58.5938	71.7069	58.5938	71.7274	58.5938	71.7014	58.5938	71.7143	58.5938	71.7011	58.5938	71.7055
60.0586	72.3354	60.0586	72.3332	60.0586	72.3303	60.0586	72.3239	60.0586	72.3179	60.0586	72.308	60.0586	72.2985	60.0586	72.2864	60.0586	72.2728	60.0586	72.2602	60.0586	72.2418	60.0586	72.2308	60.0586	72.2068	60.0586	72.1996	60.0586	72.1693	60.0586	72.1681	60.0586	72.1312	60.0586	72.1374	60.0586	72.0943	60.0586	72.1087	60.0586	72.0604	60.0586	72.0827	60.0586	72.031	60.0586	72.0597	60.0586	72.0072	60.0586	72.0399	60.0586	71.9895	60.0586	72.0229	60.0586	71.9779	60.0586	72.0086	60.0586	71.9719	60.0586	71.9966	60.0586	71.9707	60.0586	71.9867	60.0586	71.9733	60.0586	71.9788
62.9883	73.2121	62.9883	73.2141	62.9883	73.2024	62.9883	73.2083	62.9883	73.1855	62.9883	73.1949	62.9883	73.1618	62.9883	73.1745	62.9883	73.1324	62.9883	73.148	62.9883	73.0984	62.9883	73.1164	62.9883	73.061	62.9883	73.0811	62.9883	73.0219	62.9883	73.0436	62.9883	72.9825	62.9883	73.0054	62.9883	72.9444	62.9883	72.9678	62.9883	72.909	62.9883	72.9321	62.9883	72.8774	62.9883	72.8994	62.9883	72.8505	62.9883	72.8705	62.9883	72.8287	62.9883	72.8459	62.9883	72.812	62.9883	72.8258	62.9883	72.8003	62.9883	72.8103	62.9883	72.7934	62.9883	72.7994	62.9883	72.791	62.9883	72.793
64.4531	73.6043	64.4531	73.607	64.4531	73.5935	64.4531	73.6014	64.4531	73.5749	64.4531	73.5878	64.4531	73.5491	64.4531	73.5667	64.4531	73.517	64.4531	73.5389	64.4531	73.4797	64.4531	73.5056	64.4531	73.4386	64.4531	73.468	64.4531	73.3952	64.4531	73.4276	64.4531	73.3513	64.4531	73.386	64.4531	73.3087	64.4531	73.3446	64.4531	73.2689	64.4531	73.3048	64.4531	73.2335	64.4531	73.2679	64.4531	73.2034	64.4531	73.2348	64.4531	73.1791	64.4531	73.2063	64.4531	73.1609	64.4531	73.1827	64.4531	73.1484	64.4531	73.1642	64.4531	73.1414	64.4531	73.151	64.4531	73.1396	64.4531	73.1428
67.3828	74.5686	67.3828	74.562	67.3828	74.564	67.3828	74.5447	67.3828	74.5483	67.3828	74.5174	67.3828	74.522	67.3828	74.4813	67.3828	74.486	67.3828	74.4377	67.3828	74.4414	67.3828	74.3885	67.3828	74.3899	67.3828	74.3354	67.3828	74.3333	67.3828	74.2805	67.3828	74.2738	67.3828	74.2255	67.3828	74.2138	67.3828	74.1723	67.3828	74.1556	67.3828	74.1223	67.3828	74.1014	67.3828	74.0768	67.3828	74.0532	67.3828	74.0364	67.3828	74.0123	67.3828	74.0019	67.3828	73.9795	67.3828	73.9738	67.3828	73.955	67.3828	73.9524	67.3828	73.9389	67.3828	73.9379	67.3828	73.9309	67.3828	73.9307
68.8477	74.8997	68.8477	74.889	68.8477	74.8999	68.8477	74.8681	68.8477	74.8896	68.8477	74.8378	68.8477	74.8689	68.8477	74.7992	68.8477	74.8384	68.8477	74.7537	68.8477	74.7992	68.8477	74.7028	68.8477	74.7526	68.8477	74.6485	68.8477	74.7002	68.8477	74.5928	68.8477	74.6441	68.8477	74.5377	68.8477	74.5865	68.8477	74.4852	68.8477	74.5297	68.8477	74.4369	68.8477	74.4759	68.8477	74.3941	68.8477	74.427	68.8477	74.3577	68.8477	74.3845	68.8477	74.3282	68.8477	74.3492	68.8477	74.3059	68.8477	74.3214	68.8477	74.2909	68.8477	74.3011	68.8477	74.2829	68.8477	74.288	68.8477	74.282
