"SPL Vertical"																																																																							
"On-Axis"		"10°"		"-10°"		"20°"		"-20°"		"30°"		"-30°"		"40°"		"-40°"		"50°"		"-50°"		"60°"		"-60°"		"70°"		"-70°"		"80°"		"-80°"		"90°"		"-90°"		"100°"		"-100°"		"110°"		"-110°"		"120°"		"-120°"		"130°"		"-130°"		"140°"		"-140°"		"150°"		"-150°"		"160°"		"-160°"		"170°"		"-170°"		"180°"	
"Frequency [Hz]"	"Sound Pessure Level [dB]  / [2.83V 1m] "	"Frequency [Hz]"	"Sound Pessure Level [dB]  / [2.83V 1m] "	"Frequency [Hz]"	"Sound Pessure Level [dB]  / [2.83V 1m] "	"Frequency [Hz]"	"Sound Pessure Level [dB]  / [2.83V 1m] "	"Frequency [Hz]"	"Sound Pessure Level [dB]  / [2.83V 1m] "	"Frequency [Hz]"	"Sound Pessure Level [dB]  / [2.83V 1m] "	"Frequency [Hz]"	"Sound Pessure Level [dB]  / [2.83V 1m] "	"Frequency [Hz]"	"Sound Pessure Level [dB]  / [2.83V 1m] "	"Frequency [Hz]"	"Sound Pessure Level [dB]  / [2.83V 1m] "	"Frequency [Hz]"	"Sound Pessure Level [dB]  / [2.83V 1m] "	"Frequency [Hz]"	"Sound Pessure Level [dB]  / [2.83V 1m] "	"Frequency [Hz]"	"Sound Pessure Level [dB]  / [2.83V 1m] "	"Frequency [Hz]"	"Sound Pessure Level [dB]  / [2.83V 1m] "	"Frequency [Hz]"	"Sound Pessure Level [dB]  / [2.83V 1m] "	"Frequency [Hz]"	"Sound Pessure Level [dB]  / [2.83V 1m] "	"Frequency [Hz]"	"Sound Pessure Level [dB]  / [2.83V 1m] "	"Frequency [Hz]"	"Sound Pessure Level [dB]  / [2.83V 1m] "	"Frequency [Hz]"	"Sound Pessure Level [dB]  / [2.83V 1m] "	"Frequency [Hz]"	"Sound Pessure Level [dB]  / [2.83V 1m] "	"Frequency [Hz]"	"Sound Pessure Level [dB]  / [2.83V 1m] "	"Frequency [Hz]"	"Sound Pessure Level [dB]  / [2.83V 1m] "	"Frequency [Hz]"	"Sound Pessure Level [dB]  / [2.83V 1m] "	"Frequency [Hz]"	"Sound Pessure Level [dB]  / [2.83V 1m] "	"Frequency [Hz]"	"Sound Pessure Level [dB]  / [2.83V 1m] "	"Frequency [Hz]"	"Sound Pessure Level [dB]  / [2.83V 1m] "	"Frequency [Hz]"	"Sound Pessure Level [dB]  / [2.83V 1m] "	"Frequency [Hz]"	"Sound Pessure Level [dB]  / [2.83V 1m] "	"Frequency [Hz]"	"Sound Pessure Level [dB]  / [2.83V 1m] "	"Frequency [Hz]"	"Sound Pessure Level [dB]  / [2.83V 1m] "	"Frequency [Hz]"	"Sound Pessure Level [dB]  / [2.83V 1m] "	"Frequency [Hz]"	"Sound Pessure Level [dB]  / [2.83V 1m] "	"Frequency [Hz]"	"Sound Pessure Level [dB]  / [2.83V 1m] "	"Frequency [Hz]"	"Sound Pessure Level [dB]  / [2.83V 1m] "	"Frequency [Hz]"	"Sound Pessure Level [dB]  / [2.83V 1m] "	"Frequency [Hz]"	"Sound Pessure Level [dB]  / [2.83V 1m] "	"Frequency [Hz]"	"Sound Pessure Level [dB]  / [2.83V 1m] "
20.5078	52.9989	20.5078	52.8728	20.5078	53.1038	20.5078	52.7294	20.5078	53.183	20.5078	52.5717	20.5078	53.2315	20.5078	52.4014	20.5078	53.2443	20.5078	52.2196	20.5078	53.2168	20.5078	52.0268	20.5078	53.1455	20.5078	51.8227	20.5078	53.0275	20.5078	51.6077	20.5078	52.8614	20.5078	51.3822	20.5078	52.6472	20.5078	51.1477	20.5078	52.387	20.5078	50.9076	20.5078	52.0853	20.5078	50.6673	20.5078	51.7497	20.5078	50.4359	20.5078	51.3921	20.5078	50.227	20.5078	51.0293	20.5078	50.0581	20.5078	50.6827	20.5078	49.9493	20.5078	50.3771	20.5078	49.9194	20.5078	50.1369	20.5078	49.9812
21.9727	56.094	21.9727	56.0082	21.9727	56.1625	21.9727	55.9081	21.9727	56.2107	21.9727	55.7967	21.9727	56.2363	21.9727	55.6766	21.9727	56.2373	21.9727	55.5499	21.9727	56.2125	21.9727	55.4184	21.9727	56.1611	21.9727	55.2834	21.9727	56.0827	21.9727	55.1461	21.9727	55.9779	21.9727	55.0078	21.9727	55.8476	21.9727	54.8702	21.9727	55.694	21.9727	54.736	21.9727	55.5205	21.9727	54.6088	21.9727	55.3319	21.9727	54.4937	21.9727	55.135	21.9727	54.3976	21.9727	54.9379	21.9727	54.3283	21.9727	54.7508	21.9727	54.2938	21.9727	54.5842	21.9727	54.3006	21.9727	54.4486	21.9727	54.3525
23.4375	55.7896	23.4375	55.7119	23.4375	55.8537	23.4375	55.6227	23.4375	55.9022	23.4375	55.5242	23.4375	55.9333	23.4375	55.4185	23.4375	55.9451	23.4375	55.3078	23.4375	55.9362	23.4375	55.1942	23.4375	55.9052	23.4375	55.0797	23.4375	55.8513	23.4375	54.9663	23.4375	55.7743	23.4375	54.8557	23.4375	55.6748	23.4375	54.75	23.4375	55.5544	23.4375	54.6512	23.4375	55.416	23.4375	54.5619	23.4375	55.264	23.4375	54.4854	23.4375	55.104	23.4375	54.4259	23.4375	54.9431	23.4375	54.388	23.4375	54.7892	23.4375	54.3769	23.4375	54.6507	23.4375	54.3967	23.4375	54.5355	23.4375	54.4497
24.9023	56.2517	24.9023	56.1487	24.9023	56.3451	24.9023	56.04	24.9023	56.4249	24.9023	55.9289	24.9023	56.4874	24.9023	55.8178	24.9023	56.5295	24.9023	55.7086	24.9023	56.5485	24.9023	55.6023	24.9023	56.543	24.9023	55.4999	24.9023	56.5119	24.9023	55.4025	24.9023	56.4554	24.9023	55.3111	24.9023	56.3744	24.9023	55.2276	24.9023	56.271	24.9023	55.1543	24.9023	56.1483	24.9023	55.094	24.9023	56.0103	24.9023	55.0501	24.9023	55.8621	24.9023	55.0262	24.9023	55.7097	24.9023	55.0258	24.9023	55.5594	24.9023	55.0516	24.9023	55.4178	24.9023	55.105	24.9023	55.2914	24.9023	55.1857
26.3672	56.8879	26.3672	56.7986	26.3672	56.9709	26.3672	56.7054	26.3672	57.0452	26.3672	56.6106	26.3672	57.1081	26.3672	56.5167	26.3672	57.1571	26.3672	56.4256	26.3672	57.1898	26.3672	56.3393	26.3672	57.2039	26.3672	56.2596	26.3672	57.198	26.3672	56.1884	26.3672	57.1714	26.3672	56.1271	26.3672	57.1247	26.3672	56.0776	26.3672	57.0594	26.3672	56.0415	26.3672	56.9784	26.3672	56.0205	26.3672	56.8848	26.3672	56.0162	26.3672	56.7823	26.3672	56.0298	26.3672	56.6746	26.3672	56.0619	26.3672	56.5653	26.3672	56.1122	26.3672	56.4578	26.3672	56.1795	26.3672	56.3554	26.3672	56.2616
27.832	57.8391	27.832	57.7583	27.832	57.9115	27.832	57.6711	27.832	57.9737	27.832	57.5796	27.832	58.0234	27.832	57.486	27.832	58.0588	27.832	57.3925	27.832	58.0776	27.832	57.3013	27.832	58.0781	27.832	57.2144	27.832	58.0588	27.832	57.1337	27.832	58.0192	27.832	57.0608	27.832	57.9601	27.832	56.9977	27.832	57.8829	27.832	56.946	27.832	57.7906	27.832	56.9077	27.832	57.6866	27.832	56.8849	27.832	57.5749	27.832	56.8794	27.832	57.46	27.832	56.8929	27.832	57.3461	27.832	56.9262	27.832	57.2372	27.832	56.9791	27.832	57.1374	27.832	57.0503
29.2969	58.869	29.2969	58.7679	29.2969	58.9587	29.2969	58.6588	29.2969	59.034	29.2969	58.5449	29.2969	59.0921	29.2969	58.4297	29.2969	59.1307	29.2969	58.316	29.2969	59.148	29.2969	58.2065	29.2969	59.1427	29.2969	58.1036	29.2969	59.1141	29.2969	58.0095	29.2969	59.0623	29.2969	57.9262	29.2969	58.9887	29.2969	57.8556	29.2969	58.8956	29.2969	57.7997	29.2969	58.7862	29.2969	57.7603	29.2969	58.6649	29.2969	57.7393	29.2969	58.5361	29.2969	57.7381	29.2969	58.4048	29.2969	57.758	29.2969	58.2756	29.2969	57.7991	29.2969	58.1529	29.2969	57.8611	29.2969	58.0407	29.2969	57.9424
30.7617	59.6719	30.7617	59.5881	30.7617	59.7456	30.7617	59.4971	30.7617	59.8062	30.7617	59.4017	30.7617	59.8509	30.7617	59.3047	30.7617	59.877	30.7617	59.2083	30.7617	59.8822	30.7617	59.1148	30.7617	59.8646	30.7617	59.026	30.7617	59.8233	30.7617	58.9432	30.7617	59.7588	30.7617	58.868	30.7617	59.6726	30.7617	58.8014	30.7617	59.568	30.7617	58.7447	30.7617	59.4495	30.7617	58.6988	30.7617	59.3228	30.7617	58.6648	30.7617	59.1943	30.7617	58.6439	30.7617	59.0704	30.7617	58.6372	30.7617	58.9569	30.7617	58.646	30.7617	58.8582	30.7617	58.6716	30.7617	58.7772	30.7617	58.715
32.2266	60.2561	32.2266	60.1619	32.2266	60.3417	32.2266	60.0625	32.2266	60.4157	32.2266	59.961	32.2266	60.4753	32.2266	59.8604	32.2266	60.5181	32.2266	59.7635	32.2266	60.5424	32.2266	59.6729	32.2266	60.547	32.2266	59.5907	32.2266	60.5313	32.2266	59.5187	32.2266	60.4958	32.2266	59.4588	32.2266	60.4415	32.2266	59.4121	32.2266	60.3704	32.2266	59.3798	32.2266	60.2852	32.2266	59.3627	32.2266	60.1891	32.2266	59.3615	32.2266	60.0859	32.2266	59.3765	32.2266	59.9793	32.2266	59.4074	32.2266	59.8731	32.2266	59.4539	32.2266	59.7708	32.2266	59.515	32.2266	59.6754	32.2266	59.5894
33.6914	61.0999	33.6914	61.0095	33.6914	61.1812	33.6914	60.9128	33.6914	61.2504	33.6914	60.8128	33.6914	61.3048	33.6914	60.7125	33.6914	61.342	33.6914	60.6145	33.6914	61.36	33.6914	60.5212	33.6914	61.3572	33.6914	60.4349	33.6914	61.333	33.6914	60.3573	33.6914	61.2875	33.6914	60.2899	33.6914	61.2217	33.6914	60.234	33.6914	61.1378	33.6914	60.1908	33.6914	61.039	33.6914	60.1609	33.6914	60.9292	33.6914	60.1452	33.6914	60.813	33.6914	60.1444	33.6914	60.6955	33.6914	60.1591	33.6914	60.5815	33.6914	60.19	33.6914	60.4756	33.6914	60.2374	33.6914	60.3813	33.6914	60.3014
35.1562	62.0183	35.1562	61.932	35.1562	62.0963	35.1562	61.8397	35.1562	62.164	35.1562	61.7436	35.1562	62.2192	35.1562	61.646	35.1562	62.2596	35.1562	61.5492	35.1562	62.2834	35.1562	61.4556	35.1562	62.2892	35.1562	61.3678	35.1562	62.2759	35.1562	61.2883	35.1562	62.2435	35.1562	61.2196	35.1562	62.1928	35.1562	61.1638	35.1562	62.1252	35.1562	61.1231	35.1562	62.0432	35.1562	61.0991	35.1562	61.9496	35.1562	61.0932	35.1562	61.8479	35.1562	61.1061	35.1562	61.7413	35.1562	61.1379	35.1562	61.6333	35.1562	61.1877	35.1562	61.5274	35.1562	61.254	35.1562	61.4267	35.1562	61.3346
36.6211	62.583	36.6211	62.4871	36.6211	62.6683	36.6211	62.3839	36.6211	62.7399	36.6211	62.2767	36.6211	62.7949	36.6211	62.1688	36.6211	62.8308	36.6211	62.063	36.6211	62.846	36.6211	61.9622	36.6211	62.8392	36.6211	61.8688	36.6211	62.8103	36.6211	61.785	36.6211	62.76	36.6211	61.713	36.6211	62.6901	36.6211	61.6544	36.6211	62.6033	36.6211	61.6107	36.6211	62.5031	36.6211	61.583	36.6211	62.3938	36.6211	61.5721	36.6211	62.2796	36.6211	61.5785	36.6211	62.1648	36.6211	61.6021	36.6211	62.0534	36.6211	61.6424	36.6211	61.9487	36.6211	61.6986	36.6211	61.8533	36.6211	61.7694
38.0859	63.5977	38.0859	63.5065	38.0859	63.6795	38.0859	63.4091	38.0859	63.7488	38.0859	63.3087	38.0859	63.8026	38.0859	63.2082	38.0859	63.8386	38.0859	63.1106	38.0859	63.8546	38.0859	63.0184	38.0859	63.8494	38.0859	62.9341	38.0859	63.8225	38.0859	62.8596	38.0859	63.7744	38.0859	62.7966	38.0859	63.7068	38.0859	62.7464	38.0859	63.6223	38.0859	62.7099	38.0859	63.5247	38.0859	62.6878	38.0859	63.4185	38.0859	62.6801	38.0859	63.3087	38.0859	62.6868	38.0859	63.2002	38.0859	62.7074	38.0859	63.0972	38.0859	62.7415	38.0859	63.003	38.0859	62.7885	38.0859	62.9196	38.0859	62.8479
39.5508	64.1473	39.5508	64.0506	39.5508	64.2373	39.5508	63.9505	39.5508	64.3174	39.5508	63.8506	39.5508	64.3847	39.5508	63.7544	39.5508	64.4368	39.5508	63.6651	39.5508	64.4718	39.5508	63.5856	39.5508	64.4885	39.5508	63.5183	39.5508	64.4861	39.5508	63.4653	39.5508	64.4649	39.5508	63.4276	39.5508	64.4258	39.5508	63.406	39.5508	64.3705	39.5508	63.4004	39.5508	64.3018	39.5508	63.4103	39.5508	64.2228	39.5508	63.4346	39.5508	64.1371	39.5508	63.4717	39.5508	64.0485	39.5508	63.5201	39.5508	63.9599	39.5508	63.5777	39.5508	63.8738	39.5508	63.6429	39.5508	63.7917	39.5508	63.7146
41.0156	63.1083	41.0156	63.0004	41.0156	63.2085	41.0156	62.8884	41.0156	63.2978	41.0156	62.7761	41.0156	63.3737	41.0156	62.6673	41.0156	63.4341	41.0156	62.5657	41.0156	63.4777	41.0156	62.475	41.0156	63.5034	41.0156	62.3987	41.0156	63.5109	41.0156	62.34	41.0156	63.5003	41.0156	62.3014	41.0156	63.4721	41.0156	62.2847	41.0156	63.428	41.0156	62.2906	41.0156	63.3699	41.0156	62.3188	41.0156	63.3007	41.0156	62.3674	41.0156	63.2232	41.0156	62.4332	41.0156	63.1403	41.0156	62.5121	41.0156	63.0541	41.0156	62.5995	41.0156	62.9657	41.0156	62.6913	41.0156	62.8757	41.0156	62.7839
42.4805	64.4962	42.4805	64.4079	42.4805	64.5705	42.4805	64.3088	42.4805	64.6283	42.4805	64.2018	42.4805	64.6673	42.4805	64.0903	42.4805	64.686	42.4805	63.9772	42.4805	64.6833	42.4805	63.8655	42.4805	64.659	42.4805	63.7578	42.4805	64.6133	42.4805	63.6569	42.4805	64.5475	42.4805	63.5653	42.4805	64.4635	42.4805	63.4852	42.4805	64.364	42.4805	63.4189	42.4805	64.2521	42.4805	63.3683	42.4805	64.1314	42.4805	63.335	42.4805	64.0059	42.4805	63.3203	42.4805	63.88	42.4805	63.325	42.4805	63.7581	42.4805	63.3499	42.4805	63.6449	42.4805	63.3951	42.4805	63.5445	42.4805	63.4604
43.9453	65.2881	43.9453	65.2001	43.9453	65.3635	43.9453	65.1019	43.9453	65.4234	43.9453	64.9963	43.9453	65.4655	43.9453	64.8858	43.9453	65.4877	43.9453	64.7731	43.9453	65.4883	43.9453	64.6608	43.9453	65.4663	43.9453	64.5513	43.9453	65.4216	43.9453	64.4474	43.9453	65.3551	43.9453	64.3518	43.9453	65.2686	43.9453	64.2673	43.9453	65.1648	43.9453	64.1963	43.9453	65.0473	43.9453	64.1414	43.9453	64.9204	43.9453	64.1046	43.9453	64.7889	43.9453	64.0874	43.9453	64.6576	43.9453	64.0909	43.9453	64.5315	43.9453	64.1156	43.9453	64.4154	43.9453	64.1614	43.9453	64.3131	43.9453	64.2277
45.4102	65.937	45.4102	65.8419	45.4102	66.0207	45.4102	65.7384	45.4102	66.0901	45.4102	65.6297	45.4102	66.1425	45.4102	65.5184	45.4102	66.1757	45.4102	65.4074	45.4102	66.188	45.4102	65.2991	45.4102	66.1785	45.4102	65.1959	45.4102	66.147	45.4102	65.1002	45.4102	66.0942	45.4102	65.0141	45.4102	66.0216	45.4102	64.9401	45.4102	65.9314	45.4102	64.8804	45.4102	65.8265	45.4102	64.837	45.4102	65.7101	45.4102	64.8121	45.4102	65.5861	45.4102	64.8073	45.4102	65.4585	45.4102	64.8237	45.4102	65.3318	45.4102	64.862	45.4102	65.2104	45.4102	64.9218	45.4102	65.099	45.4102	65.0017
46.875	66.5431	46.875	66.4543	46.875	66.6234	46.875	66.36	46.875	66.6923	46.875	66.2633	46.875	66.747	46.875	66.1669	46.875	66.7853	46.875	66.0737	46.875	66.8056	46.875	65.9859	46.875	66.8068	46.875	65.9057	46.875	66.7887	46.875	65.8352	46.875	66.7518	46.875	65.776	46.875	66.6977	46.875	65.7296	46.875	66.6286	46.875	65.6974	46.875	66.5471	46.875	65.6804	46.875	66.4566	46.875	65.679	46.875	66.3603	46.875	65.6935	46.875	66.2615	46.875	65.7237	46.875	66.1632	46.875	65.7687	46.875	66.0682	46.875	65.8274	46.875	65.9791	46.875	65.8982
48.3398	67.0992	48.3398	67.0143	48.3398	67.1764	48.3398	66.9246	48.3398	67.2431	48.3398	66.8331	48.3398	67.2967	48.3398	66.7427	48.3398	67.3353	48.3398	66.656	48.3398	67.357	48.3398	66.5757	48.3398	67.361	48.3398	66.5038	48.3398	67.347	48.3398	66.4423	48.3398	67.3156	48.3398	66.3929	48.3398	67.2684	48.3398	66.3566	48.3398	67.2076	48.3398	66.3344	48.3398	67.1357	48.3398	66.3267	48.3398	67.0557	48.3398	66.3335	48.3398	66.9706	48.3398	66.3544	48.3398	66.8834	48.3398	66.3886	48.3398	66.7964	48.3398	66.4348	48.3398	66.712	48.3398	66.4918	48.3398	66.632	48.3398	66.558
51.2695	68.2102	51.2695	68.1217	51.2695	68.2889	51.2695	68.0266	51.2695	68.3553	51.2695	67.9284	51.2695	68.407	51.2695	67.8306	51.2695	68.4426	51.2695	67.7365	51.2695	68.4607	51.2695	67.6493	51.2695	68.4609	51.2695	67.5717	51.2695	68.4431	51.2695	67.506	51.2695	68.4083	51.2695	67.4539	51.2695	68.3577	51.2695	67.4167	51.2695	68.2937	51.2695	67.3948	51.2695	68.2187	51.2695	67.3883	51.2695	68.1357	51.2695	67.3969	51.2695	68.0479	51.2695	67.4196	51.2695	67.958	51.2695	67.4553	51.2695	67.8689	51.2695	67.5026	51.2695	67.7828	51.2695	67.5603	51.2695	67.7017	51.2695	67.627
52.7344	68.6758	52.7344	68.5875	52.7344	68.7542	52.7344	68.4924	52.7344	68.8204	52.7344	68.3936	52.7344	68.8723	52.7344	68.2946	52.7344	68.9086	52.7344	68.1988	52.7344	68.9281	52.7344	68.1092	52.7344	68.9304	52.7344	68.0287	52.7344	68.9155	52.7344	67.9597	52.7344	68.8838	52.7344	67.9039	52.7344	68.8367	52.7344	67.8629	52.7344	68.7759	52.7344	67.8374	52.7344	68.7034	52.7344	67.828	52.7344	68.6219	52.7344	67.8347	52.7344	68.5337	52.7344	67.8571	52.7344	68.4416	52.7344	67.8945	52.7344	68.3479	52.7344	67.9457	52.7344	68.2554	52.7344	68.0094	52.7344	68.1664	52.7344	68.0836
54.1992	69.1486	54.1992	69.0598	54.1992	69.2278	54.1992	68.9644	54.1992	69.2945	54.1992	68.8658	54.1992	69.3467	54.1992	68.7675	54.1992	69.3829	54.1992	68.6728	54.1992	69.4019	54.1992	68.5848	54.1992	69.4034	54.1992	68.5064	54.1992	69.3875	54.1992	68.4398	54.1992	69.3551	54.1992	68.387	54.1992	69.3079	54.1992	68.3494	54.1992	69.2479	54.1992	68.328	54.1992	69.1777	54.1992	68.3231	54.1992	69.1	54.1992	68.3346	54.1992	69.0173	54.1992	68.3619	54.1992	68.9318	54.1992	68.4036	54.1992	68.8454	54.1992	68.458	54.1992	68.7595	54.1992	68.5231	54.1992	68.676	54.1992	68.5965
55.6641	69.7111	55.6641	69.6217	55.6641	69.7909	55.6641	69.5257	55.6641	69.8584	55.6641	69.4261	55.6641	69.911	55.6641	69.326	55.6641	69.9466	55.6641	69.2282	55.6641	69.9638	55.6641	69.1355	55.6641	69.9617	55.6641	69.0507	55.6641	69.9402	55.6641	68.9762	55.6641	69.9001	55.6641	68.9142	55.6641	69.8432	55.6641	68.8664	55.6641	69.7719	55.6641	68.8343	55.6641	69.6893	55.6641	68.8187	55.6641	69.5987	55.6641	68.82	55.6641	69.5034	55.6641	68.8378	55.6641	69.4064	55.6641	68.8712	55.6641	69.3106	55.6641	68.919	55.6641	69.218	55.6641	68.9795	55.6641	69.1308	55.6641	69.0507
58.5938	70.5845	58.5938	70.4935	58.5938	70.6671	58.5938	70.3971	58.5938	70.7382	58.5938	70.2987	58.5938	70.7952	58.5938	70.2015	58.5938	70.8362	58.5938	70.1088	58.5938	70.8595	58.5938	70.0235	58.5938	70.8645	58.5938	69.9486	58.5938	70.8513	58.5938	69.8863	58.5938	70.8209	58.5938	69.8388	58.5938	70.7754	58.5938	69.8075	58.5938	70.7171	58.5938	69.7934	58.5938	70.6491	58.5938	69.7965	58.5938	70.5745	58.5938	69.8163	58.5938	70.4958	58.5938	69.8514	58.5938	70.4152	58.5938	69.8998	58.5938	70.3343	58.5938	69.959	58.5938	70.2541	58.5938	70.0262	58.5938	70.1754	58.5938	70.099
60.0586	71.0691	60.0586	70.9787	60.0586	71.1503	60.0586	70.8823	60.0586	71.2194	60.0586	70.783	60.0586	71.2738	60.0586	70.6842	60.0586	71.3115	60.0586	70.589	60.0586	71.3309	60.0586	70.5004	60.0586	71.3313	60.0586	70.4214	60.0586	71.3128	60.0586	70.3542	60.0586	71.2766	60.0586	70.301	60.0586	71.2246	60.0586	70.2632	60.0586	71.1593	60.0586	70.2419	60.0586	71.0839	60.0586	70.2373	60.0586	71.0016	60.0586	70.2491	60.0586	70.9156	60.0586	70.2762	60.0586	70.8283	60.0586	70.3171	60.0586	70.742	60.0586	70.3698	60.0586	70.6581	60.0586	70.432	60.0586	70.5777	60.0586	70.5019
62.9883	71.9191	62.9883	71.8272	62.9883	72.0013	62.9883	71.7288	62.9883	72.0707	62.9883	71.6272	62.9883	72.1247	62.9883	71.5258	62.9883	72.1613	62.9883	71.4279	62.9883	72.179	62.9883	71.3365	62.9883	72.1772	62.9883	71.2545	62.9883	72.1561	62.9883	71.1845	62.9883	72.1168	62.9883	71.1283	62.9883	72.0615	62.9883	71.0878	62.9883	71.9928	62.9883	71.0637	62.9883	71.9138	62.9883	71.0564	62.9883	71.8279	62.9883	71.0656	62.9883	71.7383	62.9883	71.0904	62.9883	71.6475	62.9883	71.1294	62.9883	71.558	62.9883	71.1806	62.9883	71.4714	62.9883	71.2422	62.9883	71.3891	62.9883	71.3122
64.4531	72.3611	64.4531	72.2675	64.4531	72.444	64.4531	72.1666	64.4531	72.5134	64.4531	72.0618	64.4531	72.5666	64.4531	71.9565	64.4531	72.6014	64.4531	71.8539	64.4531	72.6166	64.4531	71.7574	64.4531	72.6114	64.4531	71.6698	64.4531	72.5862	64.4531	71.5937	64.4531	72.542	64.4531	71.5312	64.4531	72.481	64.4531	71.4842	64.4531	72.4058	64.4531	71.4538	64.4531	72.3199	64.4531	71.4403	64.4531	72.2267	64.4531	71.4438	64.4531	72.1295	64.4531	71.4636	64.4531	72.0316	64.4531	71.4986	64.4531	71.9356	64.4531	71.5471	64.4531	71.8436	64.4531	71.6075	64.4531	71.7572	64.4531	71.6781
67.3828	73.2057	67.3828	73.1081	67.3828	73.2926	67.3828	73.003	67.3828	73.3659	67.3828	72.8938	67.3828	73.423	67.3828	72.7842	67.3828	73.462	67.3828	72.6777	67.3828	73.4817	67.3828	72.5775	67.3828	73.4812	67.3828	72.4866	67.3828	73.4607	67.3828	72.4076	67.3828	73.4211	67.3828	72.3427	67.3828	73.3638	67.3828	72.2935	67.3828	73.2912	67.3828	72.261	67.3828	73.2057	67.3828	72.2461	67.3828	73.1103	67.3828	72.2488	67.3828	73.0082	67.3828	72.269	67.3828	72.9026	67.3828	72.3059	67.3828	72.7965	67.3828	72.3586	67.3828	72.693	67.3828	72.4255	67.3828	72.595	67.3828	72.505
68.8477	73.5763	68.8477	73.4823	68.8477	73.6615	68.8477	73.3826	68.8477	73.7349	68.8477	73.2806	68.8477	73.7939	68.8477	73.1795	68.8477	73.8367	68.8477	73.0828	68.8477	73.8619	68.8477	72.9933	68.8477	73.8687	68.8477	72.9138	68.8477	73.8572	68.8477	72.8466	68.8477	73.8284	68.8477	72.7934	68.8477	73.7835	68.8477	72.7557	68.8477	73.7245	68.8477	72.7343	68.8477	73.6535	68.8477	72.7296	68.8477	73.5729	68.8477	72.7415	68.8477	73.4851	68.8477	72.7696	68.8477	73.3923	68.8477	72.8131	68.8477	73.297	68.8477	72.8707	68.8477	73.2016	68.8477	72.9406	68.8477	73.1086	68.8477	73.0208
