* Measurement data measured by REW V5.20 Beta 53
* Source: C:\Users\Napie\Music\REW\Top Speakers\New Folder\9-DI.txt
* Format: Comma/Tab/Space delimited data
* Dated: May 26, 2020 3:14:07 PM
* REW Settings:
*  C-weighting compensation: Off
*  Target level: 75.0 dB
* Note: ; Measurement imported from C:\Users\Napie\Music\REW\Top Speakers\New Folder\9-DI.txt Format: Comma/Tab/Space delimited data 623 values loaded, 5 Hz to 39,792 Hz log spaced 
* Measurement: 9-DI
* Smoothing: None
* Frequency Step: 1/96 octave
* Start Frequency: 20.000 Hz
*
* Freq(Hz)	SPL(dB)	Phase(degrees)
20.000000	50.903980	2.8311
20.144928	50.973152	1.3259
20.290907	50.947094	-0.1927
20.437943	50.594234	-1.2386
20.586044	50.228218	-2.0875
20.735220	50.217560	-2.9067
20.885475	50.168156	-3.5384
21.036821	49.674107	-3.9480
21.189262	49.136623	-3.9324
21.342808	48.915043	-3.2059
21.497467	48.733250	-1.9798
21.653246	48.342304	-0.3602
21.810154	48.016323	1.6202
21.968201	48.005981	4.0624
22.127390	48.135811	6.4605
22.287735	48.312130	8.2985
22.449242	48.537804	9.7041
22.611917	48.803993	10.5580
22.775772	49.052723	11.0895
22.940815	49.183655	11.5059
23.107054	49.314796	11.7538
23.274498	49.563377	11.9130
23.443153	49.832638	11.7904
23.613033	50.074318	11.1128
23.784142	50.258877	10.1988
23.956491	50.309170	9.2720
24.130091	50.319988	8.3480
24.304947	50.379238	7.5562
24.481071	50.430946	6.7780
24.658470	50.448936	5.8784
24.837156	50.431053	5.0351
25.017136	50.342865	4.4167
25.198421	50.255077	3.9175
25.381020	50.251553	3.5140
25.564941	50.258999	3.1254
25.750195	50.225422	2.6087
25.936790	50.170082	2.1265
26.124741	50.079559	1.8386
26.314051	50.000092	1.6123
26.504732	50.000118	1.3565
26.696796	50.000015	1.1053
26.890253	49.914108	0.8682
27.085112	49.828079	0.6283
27.281382	49.831863	0.3660
27.479073	49.828033	0.0984
27.678198	49.723488	-0.2145
27.878765	49.594185	-0.4218
28.080786	49.481022	-0.3093
28.284271	49.397087	-0.1063
28.489231	49.395489	0.0031
28.695675	49.397015	0.0949
28.903616	49.311134	0.1795
29.113064	49.224102	0.2719
29.324028	49.219433	0.3906
29.536524	49.216022	0.5348
29.750557	49.133602	0.7011
29.966141	49.052078	0.9147
30.183289	49.041744	1.2358
30.402010	49.051983	1.5566
30.622314	49.051998	1.7680
30.844217	49.051998	1.9338
31.067726	49.051998	2.0829
31.292856	49.051998	2.2128
31.519617	49.051998	2.3302
31.748020	49.051998	2.4369
31.978081	49.051998	2.5362
32.209808	49.051998	2.6299
32.443211	49.051998	2.7199
32.678310	49.051998	2.8089
32.915108	49.051998	2.8981
33.153625	49.051998	2.9929
33.393871	49.051998	3.0917
33.635857	49.051998	3.2168
33.879597	49.044128	3.4163
34.125103	49.051971	3.6108
34.372387	49.112026	3.7319
34.621464	49.177910	3.7940
34.872345	49.201286	3.7835
35.125042	49.223965	3.7151
35.379574	49.284050	3.6086
35.635948	49.344936	3.4353
35.894180	49.378529	3.1478
36.154285	49.396980	2.8215
36.416275	49.400249	2.5204
36.680161	49.397007	2.2314
36.945961	49.396999	1.9691
37.213688	49.396999	1.7144
37.483353	49.396999	1.4530
37.754974	49.396999	1.1844
38.028561	49.396999	0.8994
38.304131	49.396999	0.6104
38.581699	49.386253	0.3800
38.861279	49.396957	0.0486
39.142883	49.488674	-0.5303
39.426529	49.568924	-1.3347
39.712231	49.556694	-2.4746
40.000000	49.476177	-3.7002
40.289856	49.321644	-4.8463
40.581814	49.102360	-5.7679
40.875885	48.803646	-6.2476
41.172089	48.491463	-6.3372
41.470440	48.233818	-5.9718
41.770950	48.010338	-5.2844
42.073643	47.811207	-4.3225
42.378525	47.672146	-3.2775
42.685616	47.661610	-2.3828
42.994934	47.672005	-1.5601
43.306492	47.586136	-0.8445
43.620308	47.500114	-0.1271
43.936401	47.478500	0.7693
44.254780	47.499935	1.6058
44.575470	47.584724	2.1665
44.898483	47.671883	2.5565
45.223835	47.682056	2.8252
45.551544	47.689968	2.9260
45.881630	47.784679	2.7937
46.214108	47.844971	2.5335
46.548996	47.748085	2.1392
46.886307	47.586281	1.8802
47.226067	47.402985	2.0761
47.568283	47.223282	2.5709
47.912983	47.091507	3.3522
48.260181	46.993137	4.3073
48.609894	46.931328	5.3216
48.962143	46.897034	6.3884
49.316940	46.881191	7.4521
49.674313	46.886974	8.5452
50.034271	46.896076	9.7739
50.396843	46.963833	10.8615
50.762039	47.193665	11.5379
51.129883	47.423653	11.8877
51.500389	47.497940	11.7838
51.873581	47.500050	11.5933
52.249481	47.455795	11.6420
52.628101	47.384132	11.9303
53.009464	47.289196	12.6628
53.393593	47.241013	13.5504
53.780506	47.356449	14.3713
54.170223	47.499786	15.1248
54.562763	47.540699	15.6944
54.958145	47.577919	16.2082
55.356396	47.679802	16.8137
55.757530	47.808765	17.3373
56.161572	47.957314	17.6310
56.568542	48.102772	17.7629
56.978462	48.215508	17.7331
57.391350	48.308846	17.5993
57.807232	48.391247	17.3971
58.226128	48.447929	17.1933
58.648056	48.456696	17.0485
59.073048	48.448025	17.0169
59.501114	48.437195	17.2171
59.932281	48.447952	17.5164
60.366577	48.518219	17.8679
60.804020	48.620804	18.1317
61.244629	48.760582	18.0858
61.688435	48.878841	17.9283
62.135452	48.884331	17.7889
62.585712	48.878990	17.6542
63.039234	48.965343	17.5641
63.496040	49.051880	17.4881
63.956161	49.052071	17.4088
64.419617	49.051975	17.3262
64.886421	49.137833	17.2353
65.356621	49.223869	17.1332
65.830215	49.223949	17.0177
66.307251	49.223972	16.8813
66.787743	49.310329	16.7251
67.271713	49.396866	16.5204
67.759193	49.407818	16.1997
68.250206	49.397026	15.8795
68.744774	49.396999	15.6766
69.242928	49.397003	15.5242
69.744690	49.396999	15.3933
70.250084	49.396999	15.2862
70.759148	49.396999	15.1962
71.271896	49.396999	15.1221
71.788361	49.396999	15.0604
72.308571	49.397003	15.0111
72.832550	49.396999	14.9732
73.360321	49.396999	14.9460
73.891922	49.396999	14.9282
74.427376	49.397003	14.9200
74.966705	49.396999	14.9212
75.509949	49.396999	14.9320
76.057121	49.396999	14.9521
76.608261	49.396999	14.9829
77.163399	49.396999	15.0247
77.722557	49.396999	15.0809
78.285767	49.396999	15.1501
78.853058	49.396999	15.2478
79.424461	49.391628	15.4053
80.000000	49.396976	15.5737
80.579712	49.434540	15.7283
81.163628	49.482906	15.8269
81.751770	49.531288	15.7933
82.344177	49.568939	15.7042
82.940880	49.574379	15.6033
83.541901	49.569019	15.5151
84.147285	49.569000	15.4887
84.757050	49.569004	15.4940
85.371231	49.569000	15.5156
85.989868	49.569000	15.5579
86.612984	49.569000	15.6177
87.240616	49.569004	15.7028
87.872803	49.569000	15.8069
88.509560	49.569000	15.9686
89.150940	49.552822	16.2862
89.796967	49.568909	16.5745
90.447670	49.698212	16.6617
91.103088	49.827774	16.6043
91.763260	49.844196	16.3448
92.428215	49.828041	16.0545
93.097992	49.827999	15.9191
93.772614	49.827999	15.8401
94.452133	49.827999	15.7784
95.136566	49.827999	15.7391
95.825966	49.827999	15.7142
96.520363	49.827999	15.7040
97.219788	49.827999	15.7059
97.924286	49.827999	15.7200
98.633881	49.827999	15.7448
99.348625	49.827999	15.7829
100.068542	49.827999	15.8341
100.793686	49.827999	15.9048
101.524078	49.826939	15.9975
102.259766	49.827988	16.1236
103.000778	49.826797	16.3317
103.747162	49.844936	16.5137
104.498962	49.923409	16.5622
105.256203	49.999882	16.5231
106.018929	50.009693	16.3753
106.787186	50.000023	16.2143
107.561012	50.000000	16.1486
108.340446	50.000000	16.1200
109.125526	50.000000	16.1052
109.916290	50.000004	16.1070
110.712791	50.000000	16.1203
111.515060	49.999996	16.1459
112.323143	50.000000	16.1822
113.137085	50.000000	16.2309
113.956924	50.000000	16.2919
114.782700	50.000000	16.3688
115.614464	50.000000	16.4597
116.452255	50.000000	16.5807
117.296112	49.995567	16.7556
118.146095	49.999977	16.9606
119.002228	50.023663	17.2199
119.864563	50.070839	17.4127
120.733154	50.170380	17.3922
121.608040	50.258850	17.2574
122.489258	50.262535	17.0217
123.376869	50.240067	16.7975
124.270905	50.226402	16.7408
125.171425	50.220001	16.7340
126.078468	50.239460	16.7046
126.992081	50.258968	16.6701
127.912323	50.252583	16.6091
128.839233	50.239029	16.5670
129.772842	50.226395	16.6060
130.713242	50.220997	16.6549
131.660431	50.244259	16.6382
132.614502	50.258991	16.6300
133.575485	50.214924	16.6854
134.543427	50.172058	16.7868
135.518387	50.188637	16.9674
136.500412	50.220940	17.1288
137.489548	50.248459	17.1351
138.485855	50.259007	17.1300
139.489380	50.217983	17.2054
140.500168	50.172089	17.3825
141.518295	50.151939	17.7910
142.543793	50.171879	18.1971
143.576721	50.287132	18.3866
144.617142	50.405781	18.4271
145.665100	50.433105	18.2624
146.720642	50.431023	18.0515
147.783844	50.432564	17.9594
148.854752	50.431004	17.9131
149.933411	50.431000	17.8953
151.019897	50.431000	17.9020
152.114243	50.431000	17.9229
153.216522	50.431000	17.9589
154.326797	50.431000	18.0070
155.445114	50.431000	18.0679
156.571533	50.431000	18.1401
157.706116	50.431000	18.2258
158.848923	50.431000	18.3249
160.000000	50.430996	18.4427
161.159424	50.431000	18.5753
162.327255	50.431000	18.7495
163.503540	50.420258	19.0317
164.688354	50.430939	19.2995
165.881760	50.516773	19.4383
167.083801	50.602814	19.4890
168.294571	50.613758	19.4126
169.514099	50.603035	19.3341
170.742462	50.600189	19.3925
171.979736	50.602982	19.5086
173.225967	50.617447	19.6750
174.481232	50.647907	19.8138
175.745605	50.714657	19.8254
177.019119	50.775883	19.7672
178.301880	50.784008	19.6415
179.593933	50.776028	19.5153
180.895340	50.776001	19.4724
182.206177	50.776001	19.4650
183.526520	50.776001	19.4722
184.856430	50.776001	19.4959
186.195984	50.776001	19.5315
187.545227	50.776001	19.5789
188.904266	50.776001	19.6364
190.273132	50.776001	19.7038
191.651932	50.776001	19.7805
193.040726	50.776001	19.8667
194.439575	50.776001	19.9625
195.848572	50.776001	20.0677
197.267761	50.776001	20.1818
198.697250	50.776005	20.3057
200.137085	50.776001	20.4403
201.587372	50.776001	20.5857
203.048157	50.776001	20.7423
204.519531	50.775997	20.9095
206.001556	50.776001	21.0920
207.494324	50.776001	21.2746
208.997925	50.786243	21.3926
210.512405	50.776062	21.5983
212.037857	50.683971	22.0622
213.574371	50.612103	22.6674
215.122025	50.673454	23.3987
216.680893	50.775707	24.1192
218.251053	50.850086	24.6622
219.832581	50.936718	25.1009
221.425583	51.056198	25.5039
223.030121	51.199604	25.7198
224.646286	51.391964	25.5526
226.274170	51.551678	25.2011
227.913849	51.574017	24.7455
229.565399	51.552071	24.3488
231.228928	51.541256	24.2851
232.904510	51.551918	24.3020
234.592224	51.637741	24.2213
236.292191	51.723812	24.0884
238.004456	51.734760	23.8516
239.729126	51.724037	23.6265
241.466309	51.723999	23.5319
243.216080	51.723999	23.5090
244.978516	51.723999	23.5239
246.753738	51.724003	23.6186
248.541809	51.707825	23.8856
250.342850	51.723877	24.1404
252.156937	51.853130	24.2086
253.984161	51.982719	24.1483
255.824646	51.999203	23.9019
257.678467	51.983055	23.6446
259.545685	51.983002	23.5597
261.426483	51.983002	23.5669
263.320862	51.977631	23.6586
265.229004	51.982960	23.7966
267.150970	52.020500	23.9457
269.086853	52.068859	24.0896
271.036774	52.106571	24.2149
273.000824	52.154831	24.2779
274.979095	52.245483	24.2075
276.971710	52.325809	24.0725
278.978760	52.337692	23.8779
281.000336	52.328033	23.7452
283.036591	52.312012	23.8797
285.087585	52.327869	24.0356
287.153442	52.456589	24.0126
289.234283	52.585709	23.8745
291.330200	52.602139	23.5540
293.441284	52.586063	23.2477
295.567688	52.575195	23.2048
297.709503	52.585922	23.2030
299.866821	52.672234	23.0874
302.039795	52.758781	22.8997
304.228485	52.769821	22.5928
306.433044	52.759041	22.2808
308.653595	52.758999	22.0852
310.890228	52.758999	21.9394
313.143066	52.758999	21.8149
315.412231	52.758999	21.7162
317.697845	52.758999	21.6380
320.000000	52.758999	21.5811
322.318848	52.758999	21.5433
324.654510	52.758999	21.5290
327.007080	52.758999	21.5357
329.376709	52.758999	21.5828
331.763519	52.751755	21.7131
334.167603	52.758938	21.8546
336.589142	52.813313	21.9517
339.028198	52.874836	21.9960
341.484924	52.910175	21.9211
343.959473	52.930965	21.8461
346.451935	52.923512	21.9081
348.962463	52.930931	21.9888
351.491211	53.013546	22.0239
354.038239	53.106750	21.9863
356.603760	53.154007	21.8029
359.187866	53.189896	21.5469
361.790680	53.238056	21.2651
364.412354	53.275921	20.9639
367.053040	53.281384	20.6557
369.712860	53.276028	20.3678
372.391968	53.276001	20.1432
375.090454	53.276001	19.9475
377.808533	53.276001	19.7648
380.546265	53.276001	19.5825
383.303864	53.281559	19.3618
386.081451	53.276043	19.1655
388.879150	53.231457	19.0509
391.697144	53.187111	18.9971
394.535522	53.182926	19.0211
397.394501	53.189972	19.0649
400.274170	53.190186	19.0640
403.174744	53.189999	19.0540
406.096313	53.189999	19.0498
409.039062	53.189999	19.0510
412.003113	53.189999	19.0580
414.988647	53.189999	19.0839
417.995850	53.184628	19.1627
421.024811	53.189953	19.2328
424.075714	53.232853	19.2371
427.148743	53.275887	19.1942
430.244049	53.281384	19.0848
433.361786	53.276024	18.9663
436.502106	53.276001	18.9012
439.665161	53.276001	18.8561
442.851166	53.276001	18.8181
446.060242	53.275997	18.7881
449.292572	53.276001	18.7631
452.548340	53.276001	18.7421
455.827698	53.276001	18.7254
459.130798	53.276001	18.7061
462.457855	53.278061	18.6719
465.809021	53.276016	18.6391
469.184448	53.262863	18.6093
472.584381	53.243073	18.6149
476.008911	53.214527	18.6993
479.458252	53.190060	18.8315
482.932617	53.186684	18.9982
486.432159	53.189983	19.1884
489.957031	53.186127	19.3932
493.507477	53.189968	19.5934
497.083618	53.219395	19.7661
500.685699	53.251900	19.9126
504.313873	53.267838	20.0032
507.968323	53.275986	20.1076
511.649292	53.269699	20.3114
515.356934	53.275940	20.5383
519.091370	53.329975	20.7653
522.852966	53.400753	20.9167
526.641724	53.475082	20.8704
530.458008	53.533848	20.7405
534.301941	53.542320	20.5873
538.173706	53.534039	20.4524
542.073547	53.534000	20.4121
546.001648	53.534000	20.4219
549.958191	53.534000	20.4569
553.943420	53.534004	20.5327
557.957520	53.530006	20.6661
562.000671	53.533966	20.8284
566.073181	53.559082	21.0177
570.175171	53.597851	21.1706
574.306885	53.656303	21.2002
578.468567	53.706863	21.1742
582.660400	53.713821	21.1147
586.882568	53.707031	21.0731
591.135376	53.707001	21.1187
595.419006	53.707001	21.2196
599.733643	53.707001	21.3547
604.079590	53.707001	21.5591
608.456970	53.696262	21.8943
612.866089	53.706902	22.2608
617.307190	53.786827	22.5740
621.780457	53.878716	22.8492
626.286133	53.920925	23.0792
630.824463	53.972778	23.2476
635.395691	54.093121	23.3548
640.000000	54.223568	23.3423
644.637695	54.320515	23.1141
649.309021	54.396774	22.7822
654.014160	54.450668	22.4138
658.753418	54.482929	22.0502
663.527039	54.488384	21.7536
668.335205	54.483021	21.5286
673.178284	54.482502	21.4020
678.056396	54.482994	21.3680
682.969849	54.477497	21.4538
687.918945	54.490898	21.5865
692.903870	54.555672	21.7242
697.924927	54.642681	21.7989
702.982422	54.733421	21.7247
708.076477	54.827660	21.5130
713.207520	54.926670	21.1262
718.375732	55.007767	20.6269
723.581360	55.042744	20.0416
728.824707	55.049023	19.4421
734.106079	55.037899	18.8817
739.425720	55.000187	18.4423
744.783936	54.908958	18.2567
750.180908	54.828220	18.2259
755.617065	54.832611	18.3297
761.092529	54.864861	18.4606
766.607727	54.886353	18.4887
772.162903	54.913887	18.4592
777.758301	54.957531	18.3705
783.394287	54.999863	18.2355
789.071045	55.021305	18.0624
794.789001	55.037937	17.8647
800.548340	55.064285	17.6567
806.349487	55.085938	17.4457
812.192627	55.089001	17.2332
818.078125	55.086014	17.0506
824.006226	55.081753	16.9462
829.977295	55.085960	16.8712
835.991699	55.112690	16.8133
842.049622	55.153828	16.7105
848.151428	55.210781	16.5009
854.297485	55.268795	16.1725
860.488098	55.323662	15.6393
866.723572	55.345013	15.0621
873.004211	55.279617	14.5581
879.330322	55.191319	14.1751
885.702332	55.129066	14.0506
892.120483	55.086109	14.0320
898.585144	55.079426	14.0147
905.096680	55.085968	13.9872
911.655396	55.085999	13.8924
918.261597	55.085999	13.7625
924.915710	55.085999	13.6177
931.618042	55.085999	13.4377
938.368896	55.091366	13.1946
945.168762	55.086052	12.9320
952.017822	55.049297	12.6724
958.916504	55.000198	12.4517
965.865234	54.950439	12.3272
972.864319	54.902172	12.2572
979.914062	54.864445	12.2221
987.014954	54.828136	12.2120
994.167236	54.790775	12.1767
1001.371399	54.741207	12.2176
1008.627747	54.647362	12.4458
1015.936646	54.569244	12.7844
1023.298584	54.570488	13.2478
1030.713867	54.609829	13.6708
1038.182739	54.677799	13.8492
1045.705933	54.740780	13.9109
1053.283447	54.746578	13.9013
1060.916016	54.741016	13.8671
1068.603882	54.759098	13.8919
1076.347412	54.782898	13.9110
1084.147095	54.803482	13.8971
1092.003296	54.827911	13.8194
1099.916382	54.874352	13.6026
1107.886841	54.900967	13.3520
1115.915039	54.851120	13.1357
1124.001343	54.786224	12.9923
1132.146362	54.756393	13.0209
1140.350342	54.741032	13.1076
1148.613770	54.738186	13.1656
1156.937134	54.740982	13.2099
1165.320801	54.741001	13.2231
1173.765137	54.741001	13.2171
1182.270752	54.741001	13.2002
1190.838013	54.741001	13.1662
1199.467285	54.741001	13.1192
1208.159180	54.741001	13.0354
1216.913940	54.749928	12.8616
1225.732178	54.741089	12.6896
1234.614380	54.672474	12.6003
1243.560913	54.598255	12.5760
1252.572266	54.574818	12.6343
1261.648926	54.555103	12.7484
1270.791382	54.497749	12.8829
1280.000000	54.440205	13.0811
1289.275391	54.406029	13.4204
1298.618042	54.396973	13.7647
1308.028320	54.437111	13.9957
1317.506836	54.482834	14.1326
1327.054077	54.492939	14.1200
1336.670410	54.483074	14.0652
1346.356567	54.452892	14.0540
1356.112793	54.410172	14.0987
1365.939697	54.361012	14.2373
1375.837891	54.310204	14.4768
1385.807739	54.256374	14.8717
1395.849854	54.224064	15.3182
1405.964844	54.254158	15.7291
1416.152954	54.296852	16.1057
1426.415039	54.302612	16.4105
1436.751465	54.309948	16.6741
1447.162720	54.349575	16.9331
1457.649414	54.396805	17.1324
1468.212158	54.437977	17.2141
1478.851440	54.469902	17.2211
1489.567871	54.486412	17.1590
1500.361816	54.483063	17.0833
1511.234131	54.451809	17.0248
1522.185059	54.397293	17.0625
1533.215454	54.310902	17.2940
1544.325806	54.224346	17.6948
1555.516602	54.170372	18.2921
1566.788574	54.138092	19.0277
1578.142090	54.121883	19.8685
1589.578003	54.137848	20.7652
1601.096680	54.201019	21.7020
1612.698975	54.309456	22.5448
1624.385254	54.480442	23.1529
1636.156250	54.671158	23.5289
1648.012451	54.836403	23.6398
1659.954590	54.999393	23.4533
1671.983398	55.203102	22.8431
1684.099243	55.344635	22.0584
1696.302856	55.294106	21.2315
1708.594971	55.172630	20.5902
1720.976196	55.055202	20.4871
1733.447144	54.954369	20.6836
1746.008423	54.913960	21.1030
1758.660645	54.913929	21.6019
1771.404663	54.959023	21.9999
1784.240967	55.017761	22.3308
1797.170288	55.058365	22.5281
1810.193359	55.085922	22.7152
1823.310791	55.081455	23.0129
1836.523193	55.085930	23.3655
1849.831421	55.140511	23.8115
1863.236084	55.226547	24.1866
1876.737793	55.358284	24.2971
1890.337524	55.477570	24.2664
1904.035645	55.514305	24.1074
1917.833008	55.517029	23.9634
1931.730469	55.511169	23.9845
1945.728638	55.498066	24.1648
1959.828125	55.470005	24.6107
1974.029907	55.478828	25.1338
1988.334473	55.604259	25.5977
2002.742798	55.756390	25.9479
2017.255493	55.863430	26.0117
2031.873291	55.947712	26.0070
2046.597168	55.988506	26.1471
2061.427734	56.044659	26.2805
2076.365479	56.196411	26.3433
2091.411865	56.360355	26.2796
2106.566895	56.470474	25.9582
2121.832031	56.551716	25.5418
2137.207764	56.606762	25.1343
2152.694824	56.637920	24.7852
2168.294189	56.638016	24.5870
2184.006592	56.637974	24.5130
2199.832764	56.664631	24.6228
2215.773682	56.723671	24.7506
