* Measurement data measured by REW V5.20 Beta 53
* Source: C:\Users\Napie\Music\REW\Top Speakers\New Folder\9-ER.txt
* Format: Comma/Tab/Space delimited data
* Dated: May 26, 2020 3:13:30 PM
* REW Settings:
*  C-weighting compensation: Off
*  Target level: 75.0 dB
* Note: ; Measurement imported from C:\Users\Napie\Music\REW\Top Speakers\New Folder\9-ER.txt Format: Comma/Tab/Space delimited data 623 values loaded, 5 Hz to 39,792 Hz log spaced 
* Measurement: 9-ER
* Smoothing: None
* Frequency Step: 1/96 octave
* Start Frequency: 20.000 Hz
*
* Freq(Hz)	SPL(dB)	Phase(degrees)
20.000000	58.872822	-147.5733
20.144928	59.074009	-148.4113
20.290907	59.252857	-149.2862
20.437943	59.369923	-150.1787
20.586044	59.453949	-150.9396
20.735220	59.499393	-151.3464
20.885475	59.569885	-151.5998
21.036821	59.756435	-151.7991
21.189262	59.971729	-152.0257
21.342808	60.146103	-152.4163
21.497467	60.316795	-152.9034
21.653246	60.520935	-153.5419
21.810154	60.689816	-154.1004
21.968201	60.706608	-154.3036
22.127390	60.751892	-154.3351
22.287735	61.017780	-154.1714
22.449242	61.354725	-154.1609
22.611917	61.688622	-154.7821
22.775772	61.983681	-155.6219
22.940815	62.136639	-156.4162
23.107054	62.275795	-157.1940
23.274498	62.518509	-157.7979
23.443153	62.795612	-158.5249
23.613033	63.105427	-159.7486
23.784142	63.361820	-161.0849
23.956491	63.416977	-162.2597
24.130091	63.453930	-163.3119
24.304947	63.648731	-164.1108
24.481071	63.875698	-164.8919
24.658470	64.051132	-165.8781
24.837156	64.223747	-166.9784
25.017136	64.427368	-168.1644
25.198421	64.623802	-169.4706
25.381020	64.783180	-170.9416
25.564941	64.913887	-172.5194
25.750195	65.025093	-174.2108
25.936790	65.084969	-175.8660
26.124741	65.042839	-177.3582
26.314051	64.964127	-178.6254
26.504732	64.897392	-179.5077
26.696796	64.843048	179.8287
26.890253	64.834824	179.2301
27.085112	64.821030	178.8163
27.281382	64.729111	178.6633
27.479073	64.655060	178.7507
27.678198	64.680168	179.1846
27.878765	64.776810	179.6624
28.080786	64.968452	179.8790
28.284271	65.182709	179.9460
28.489231	65.326042	179.8850
28.695675	65.484749	179.6634
28.903616	65.744980	179.2758
29.113064	66.014633	178.6620
29.324028	66.215073	177.7389
29.536524	66.390800	176.5695
29.750557	66.590050	175.1191
29.966141	66.723915	173.5987
30.183289	66.677788	172.1667
30.402010	66.576141	170.9473
30.622314	66.513954	170.1999
30.844217	66.466049	169.6785
31.067726	66.454704	169.1841
31.292856	66.432060	168.8334
31.519617	66.340576	168.6177
31.748020	66.231133	168.7156
31.978081	66.106682	169.4141
32.209808	66.053993	170.3806
32.443211	66.196930	171.4651
32.678310	66.427666	172.4050
32.915108	66.689537	172.8134
33.153625	66.951691	172.9110
33.393871	67.153679	172.7452
33.635857	67.327759	172.4525
33.879597	67.481850	172.1971
34.125103	67.628792	171.9433
34.372387	67.785515	171.7171
34.621464	67.947754	171.4963
34.872345	68.108887	171.3064
35.125042	68.292755	171.0314
35.379574	68.539261	170.5863
35.635948	68.793709	169.9030
35.894180	69.028038	168.7908
36.154285	69.201813	167.5319
36.416275	69.238007	166.3007
36.680161	69.218056	165.2314
36.945961	69.194847	164.5726
37.213688	69.178017	164.1555
37.483353	69.204887	163.8935
37.754974	69.244942	163.7861
38.028561	69.264519	163.8180
38.304131	69.309914	163.9468
38.581699	69.422554	164.1853
38.861279	69.583725	164.3519
39.142883	69.797287	164.3075
39.426529	70.036659	163.9358
39.712231	70.315704	162.9379
40.000000	70.516800	161.7219
40.289856	70.470581	160.5216
40.581814	70.345192	159.5631
40.875885	70.265610	159.2065
41.172089	70.194107	159.2826
41.470440	70.106796	159.8204
41.770950	70.085945	160.5817
42.073643	70.243195	161.3883
42.378525	70.467667	162.0881
42.685616	70.673332	162.4478
42.994934	70.895668	162.5331
43.306492	71.160866	162.3214
43.620308	71.411659	161.8469
43.936401	71.600014	161.0390
44.254780	71.723869	160.1883
44.575470	71.731636	159.5910
44.898483	71.723984	159.1616
45.223835	71.809166	158.9662
45.551544	71.913849	158.8432
45.881630	71.999130	158.6010
46.214108	72.068909	158.3943
46.548996	72.099571	158.3371
46.886307	72.134933	158.3609
47.226067	72.230782	158.4288
47.568283	72.327858	158.5577
47.912983	72.367249	158.7347
48.260181	72.402931	159.0134
48.609894	72.481171	159.4330
48.962143	72.566879	160.0239
49.316940	72.612404	160.8618
49.674313	72.700798	161.8503
50.034271	72.906670	163.0664
50.396843	73.208466	164.0668
50.762039	73.675491	164.2914
51.129883	74.109344	164.1634
51.500389	74.251945	163.8651
51.873581	74.349792	163.5654
52.249481	74.605019	163.6097
52.628101	74.896507	163.6520
53.009464	75.167427	163.4081
53.393593	75.424568	163.0327
53.780506	75.660942	162.5281
54.170223	75.861702	162.0696
54.562763	75.981819	161.8385
54.958145	76.104774	161.8199
55.356396	76.295319	162.1924
55.757530	76.565475	162.5555
56.161572	76.996376	162.5165
56.568542	77.445290	162.2257
56.978462	77.735062	161.7665
57.391350	78.048347	160.9509
57.807232	78.609306	159.5508
58.226128	79.119263	157.7664
58.648056	79.276367	155.5397
59.073048	79.309990	153.4192
59.501114	79.340561	152.0942
59.932281	79.396843	151.0886
60.366577	79.576385	150.2043
60.804020	79.792625	149.2887
61.244629	79.998970	148.0340
61.688435	80.171738	146.7073
62.135452	80.246468	145.4621
62.585712	80.298912	144.3348
63.039234	80.389832	143.4651
63.496040	80.500809	142.6953
63.956161	80.636063	141.9292
64.419617	80.787720	141.1185
64.886421	80.961388	140.1470
65.356621	81.120743	139.1218
65.830215	81.215714	138.0914
66.307251	81.292854	137.1168
66.787743	81.386635	136.2818
67.271713	81.483826	135.5682
67.759193	81.562340	135.0598
68.250206	81.682724	134.5331
68.744774	81.944511	133.7699
69.242928	82.209587	132.8358
69.744690	82.337570	131.6697
70.250084	82.432816	130.4344
70.759148	82.571739	129.2875
71.271896	82.699783	128.1840
71.788361	82.771439	127.1183
72.308571	82.834877	126.1268
72.832550	82.926689	125.2867
73.360321	83.036789	124.4705
73.891922	83.177231	123.5654
74.427376	83.317741	122.6039
74.966705	83.429176	121.5407
75.509949	83.519852	120.4969
76.057121	83.574776	119.6010
76.608261	83.634857	118.7866
77.163399	83.747322	118.0532
77.722557	83.878723	117.3305
78.285767	84.004990	116.5596
78.853058	84.144699	115.7048
79.424461	84.324707	114.6919
80.000000	84.496696	113.5772
80.579712	84.606697	112.3685
81.163628	84.697830	111.1383
81.751770	84.798798	109.9832
82.344177	84.899788	108.8394
82.940880	85.000359	107.6844
83.541901	85.100800	106.4904
84.147285	85.211174	105.1917
84.757050	85.301865	103.8785
85.371231	85.331276	102.6060
85.989868	85.344978	101.4153
86.612984	85.376167	100.4057
87.240616	85.420898	99.4588
87.872803	85.497650	98.4622
88.509560	85.571861	97.4959
89.150940	85.588829	96.6503
89.796967	85.626862	95.7839
90.447670	85.790581	94.7583
91.103088	85.947731	93.6523
91.763260	85.958076	92.4657
92.428215	85.947998	91.2982
93.097992	86.022270	90.2910
93.772614	86.107841	89.3210
94.452133	86.152977	88.2945
95.136566	86.196899	87.2611
95.825966	86.268463	86.2573
96.520363	86.347832	85.2302
97.219788	86.423027	84.1389
97.924286	86.498848	82.9834
98.633881	86.581963	81.7407
99.348625	86.654877	80.4396
100.068542	86.698425	79.0838
100.793686	86.723953	77.7273
101.524078	86.733292	76.4319
102.259766	86.735992	75.1790
103.000778	86.743790	73.9783
103.747162	86.751991	72.8062
104.498962	86.759483	71.6434
105.256203	86.766991	70.4871
106.018929	86.774979	69.3326
106.787186	86.782982	68.1673
107.561012	86.790733	66.9871
108.340446	86.797989	65.7620
109.125526	86.813293	64.4375
109.916290	86.810036	63.0824
110.712791	86.754387	61.7272
111.515060	86.676178	60.4336
112.323143	86.591873	59.3025
113.137085	86.508163	58.2471
113.956924	86.451019	57.1832
114.782700	86.379219	56.2023
115.614464	86.237328	55.3646
116.452255	86.093239	54.6831
117.296112	86.003387	54.2501
118.146095	85.948082	53.8878
119.002228	85.936752	53.4379
119.864563	85.938004	52.9324
120.733154	85.917747	52.3322
121.608040	85.893044	51.6924
122.489258	85.870483	51.0601
123.376869	85.848053	50.4215
124.270905	85.824989	49.7838
125.171425	85.804031	49.1312
126.078468	85.790588	48.4509
126.992081	85.776039	47.7406
127.912323	85.754120	46.9829
128.839233	85.723076	46.2096
129.772842	85.677658	45.4398
130.713242	85.622124	44.6935
131.660431	85.559669	43.9846
132.614502	85.488205	43.3487
133.575485	85.396965	42.8464
134.543427	85.315132	42.4167
135.518387	85.278801	42.0358
136.500412	85.257042	41.6507
137.489548	85.230003	41.1835
138.485855	85.200073	40.6862
139.489380	85.162277	40.1762
140.500168	85.119102	39.6801
141.518295	85.065254	39.2517
142.543793	85.019096	38.8261
143.576721	85.011322	38.3454
144.617142	85.000046	37.8411
145.665100	84.940292	37.3148
146.720642	84.871178	36.7993
147.783844	84.829117	36.3139
148.854752	84.778152	35.9009
149.933411	84.672447	35.6260
151.019897	84.577194	35.4384
152.114243	84.560440	35.3403
153.216522	84.568970	35.2374
154.326797	84.563560	35.0363
155.445114	84.568970	34.7348
156.571533	84.613335	34.2796
157.706116	84.647964	33.7313
158.848923	84.613541	33.1392
160.000000	84.569092	32.4846
161.159424	84.584724	31.7180
162.327255	84.569107	30.9806
163.503540	84.406143	30.4135
164.688354	84.238312	29.9698
165.881760	84.208710	29.7028
167.083801	84.202034	29.4507
168.294571	84.140503	28.9904
169.514099	84.052238	28.5579
170.742462	83.920448	28.3667
171.979736	83.803261	28.2672
173.225967	83.778648	28.2018
174.481232	83.771027	28.1043
175.745605	83.724632	27.8279
177.019119	83.656189	27.5565
178.301880	83.546516	27.4670
179.593933	83.448212	27.4370
180.895340	83.430695	27.4226
182.206177	83.425026	27.3622
183.526520	83.384499	27.0981
184.856430	83.310211	26.8744
186.195984	83.156670	26.9342
187.545227	83.017273	27.1265
188.904266	83.005165	27.4072
190.273132	83.016983	27.6934
191.651932	82.969391	27.8402
193.040726	82.913155	27.9885
194.439575	82.872604	28.2556
195.848572	82.845055	28.5701
197.267761	82.834198	28.9222
198.697250	82.844948	29.2423
200.137085	82.893173	29.4579
201.587372	82.949867	29.5669
203.048157	82.989975	29.5201
204.519531	83.016937	29.3865
206.001556	83.027802	29.1927
207.494324	83.017052	29.0173
208.997925	82.968262	28.9375
210.512405	82.911133	28.9837
212.037857	82.860718	29.2740
213.574371	82.844978	29.6232
215.122025	82.916580	29.9158
216.680893	83.016716	30.0589
218.251053	83.112198	29.8515
219.832581	83.177879	29.5011
221.425583	83.160538	29.1183
223.030121	83.111145	28.7966
224.646286	83.059937	28.7073
226.274170	83.017090	28.7289
227.913849	83.011116	28.8057
229.565399	83.016975	28.9088
231.228928	83.016998	28.9754
232.904510	83.016998	29.0507
234.592224	83.016998	29.1422
236.292191	83.016998	29.3015
238.004456	82.995644	29.6605
239.729126	83.016846	29.9863
241.466309	83.181953	30.0870
243.216080	83.358582	29.9686
244.978516	83.424767	29.5000
246.753738	83.447983	28.9017
248.541809	83.464310	28.3343
250.342850	83.448097	27.8502
252.156937	83.362244	27.5763
253.984161	83.276184	27.4481
255.824646	83.265244	27.4801
257.678467	83.275963	27.5608
259.545685	83.276001	27.5613
261.426483	83.276001	27.5480
263.320862	83.276001	27.5446
265.229004	83.276001	27.5520
267.150970	83.276001	27.5752
269.086853	83.276001	27.6248
271.036774	83.276001	27.6954
273.000824	83.276001	27.8394
274.979095	83.256454	28.1759
276.971710	83.275848	28.5002
278.978760	83.424660	28.6478
281.000336	83.588600	28.6144
283.036591	83.662025	28.2861
285.087585	83.706886	27.8285
287.153442	83.758995	27.3745
289.234283	83.792946	26.9113
291.330200	83.788048	26.4548
293.441284	83.765076	26.0500
295.567688	83.739708	25.7410
297.709503	83.707108	25.5463
299.866821	83.653381	25.5391
302.039795	83.621033	25.5998
304.228485	83.668816	25.6506
306.433044	83.734818	25.6392
308.653595	83.771042	25.4468
310.890228	83.792961	25.1937
313.143066	83.796631	24.9631
315.412231	83.793015	24.7496
317.697845	83.792999	24.5778
320.000000	83.792999	24.4393
322.318848	83.787628	24.3560
324.654510	83.792961	24.2623
327.007080	83.835854	24.1012
329.376709	83.878891	23.8699
331.763519	83.891617	23.5063
334.167603	83.879082	23.1311
336.589142	83.830048	22.8290
339.028198	83.763214	22.6473
341.484924	83.684959	22.6920
343.959473	83.621140	22.8704
346.451935	83.608498	23.1483
348.962463	83.620941	23.4531
351.491211	83.642792	23.7047
354.038239	83.678871	23.8916
356.603760	83.739449	23.9496
359.187866	83.792877	23.9580
361.790680	83.794762	23.9707
364.412354	83.792992	24.0018
367.053040	83.830429	24.0979
369.712860	83.878845	24.2146
372.391968	83.911636	24.3546
375.090454	83.965797	24.4230
377.808533	84.094681	24.3225
380.546265	84.223671	24.0620
383.303864	84.288376	23.5405
386.081451	84.309998	22.9905
388.879150	84.267143	22.6520
391.697144	84.224091	22.4047
394.535522	84.261482	22.2297
397.394501	84.309875	22.0585
400.274170	84.315376	21.7897
403.174744	84.310020	21.5029
406.096313	84.315369	21.2347
409.039062	84.310043	21.0156
412.003113	84.267143	20.8879
414.988647	84.224113	20.8529
417.995850	84.213249	20.9572
421.024811	84.223930	21.1065
424.075714	84.257484	21.2355
427.148743	84.309807	21.3030
430.244049	84.383316	21.2443
433.361786	84.459763	21.0648
436.502106	84.524132	20.7239
439.665161	84.568893	20.2944
442.851166	84.582626	19.7897
446.060242	84.562119	19.3481
449.292572	84.479340	19.1309
452.548340	84.397209	19.0849
455.827698	84.375938	19.2859
459.130798	84.396866	19.5064
462.457855	84.482704	19.5094
465.809021	84.568779	19.3955
469.184448	84.579758	19.1498
472.584381	84.569046	18.8867
476.008911	84.568748	18.7361
479.458252	84.569000	18.6382
482.932617	84.567932	18.5840
486.432159	84.572968	18.5501
489.957031	84.597099	18.5006
493.507477	84.621925	18.4631
497.083618	84.622360	18.4650
500.685699	84.630928	18.4719
504.313873	84.683746	18.4701
507.968323	84.745804	18.4242
511.649292	84.791626	18.2661
515.356934	84.827896	18.0815
519.091370	84.844261	17.9580
522.852966	84.866890	17.8255
526.641724	84.933823	17.6371
530.458008	84.999809	17.4098
534.301941	85.020149	17.1219
538.173706	85.029976	16.8439
542.073547	85.045609	16.6898
546.001648	85.079826	16.5088
549.958191	85.172310	16.1722
553.943420	85.258774	15.7227
557.957520	85.279572	15.0884
562.000671	85.259140	14.4858
566.073181	85.180336	14.1535
570.175171	85.109169	13.9565
574.306885	85.125565	13.8883
578.468567	85.171806	13.7975
582.660400	85.219276	13.5034
586.882568	85.258896	13.0847
591.135376	85.280617	12.4888
595.419006	85.259171	11.9306
599.733643	85.129982	11.6375
604.079590	85.000374	11.5231
608.456970	84.983795	11.6312
612.866089	84.999924	11.7955
617.307190	84.999878	11.8271
621.780457	85.000000	11.8350
626.286133	84.997871	11.8755
630.824463	85.001968	11.9209
635.395691	85.024910	11.9545
640.000000	85.051903	11.9978
644.637695	85.061264	12.0816
649.309021	85.085869	12.1608
654.014160	85.158203	12.2488
658.753418	85.258629	12.2006
663.527039	85.398354	11.8237
668.335205	85.516678	11.2690
673.178284	85.534142	10.5951
678.056396	85.517067	9.8914
682.969849	85.521828	9.2472
687.918945	85.501144	8.7216
692.903870	85.394821	8.4265
697.924927	85.296257	8.2922
702.982422	85.301720	8.3441
708.076477	85.344818	8.4059
713.207520	85.390015	8.2840
718.375732	85.438828	8.0530
723.581360	85.483727	7.7050
728.824707	85.516914	7.2975
734.106079	85.521881	6.8777
739.425720	85.517021	6.4684
744.783936	85.514626	6.1244
750.180908	85.516975	5.7971
755.617065	85.532928	5.4614
761.092529	85.554909	5.1014
766.607727	85.575287	4.7083
772.162903	85.602875	4.2369
777.758301	85.653824	3.6387
783.394287	85.698868	2.9138
789.071045	85.715179	2.0083
794.789001	85.699127	1.0355
800.548340	85.630356	0.0885
806.349487	85.536354	-0.8229
812.192627	85.442543	-1.6401
818.078125	85.335403	-2.4173
824.006226	85.220772	-3.2473
829.977295	85.065651	-3.9568
835.991699	84.811775	-4.4119
842.049622	84.539963	-4.5829
848.151428	84.316956	-4.3325
854.297485	84.128616	-3.8511
860.488098	83.986771	-3.2618
866.723572	83.879333	-2.6333
873.004211	83.808731	-2.1002
879.330322	83.743263	-1.5868
885.702332	83.641129	-1.0835
892.120483	83.534370	-0.5242
898.585144	83.439491	0.1915
905.096680	83.362244	0.9711
911.655396	83.329292	1.7106
918.261597	83.294174	2.5417
924.915710	83.181328	3.6050
931.618042	83.103134	4.7726
938.368896	83.184570	6.0083
945.168762	83.315475	7.1749
952.017822	83.412186	8.0748
958.916504	83.516571	8.8502
965.865234	83.637558	9.6404
972.864319	83.792343	10.2621
979.914062	84.031715	10.5446
987.014954	84.264206	10.5853
994.167236	84.392372	10.3604
1001.371399	84.482719	10.0670
1008.627747	84.558174	9.9806
1015.936646	84.654503	9.8469
1023.298584	84.855171	9.4581
1030.713867	85.040497	8.9418
1038.182739	85.071404	8.3541
1045.705933	85.085876	7.7079
1053.283447	85.217712	7.0569
1060.916016	85.344551	6.3333
1068.603882	85.361214	5.4457
1076.347412	85.345093	4.5158
1084.147095	85.356606	3.6365
1092.003296	85.345108	2.8077
1099.916382	85.262115	2.0488
1107.886841	85.159424	1.3925
1115.915039	85.084106	0.8853
1124.001343	85.003319	0.5051
1132.146362	84.887199	0.2508
1140.350342	84.772415	0.1044
1148.613770	84.700211	0.0385
1156.937134	84.628334	0.0806
1165.320801	84.510025	0.2449
1173.765137	84.398438	0.5453
1182.270752	84.338066	1.0345
1190.838013	84.310059	1.6116
1199.467285	84.304070	2.2277
1208.159180	84.337776	2.7771
1216.913940	84.444351	3.1390
1225.732178	84.567574	3.3088
1234.614380	84.655273	3.2145
1243.560913	84.726761	2.9373
1252.572266	84.795349	2.4962
1261.648926	84.827980	2.0070
1270.791382	84.776779	1.5710
1280.000000	84.698326	1.2520
1289.275391	84.633492	1.1921
1298.618042	84.583160	1.2565
1308.028320	84.568832	1.3657
1317.506836	84.568985	1.4915
1327.054077	84.568123	1.5685
1336.670410	84.569000	1.6298
1346.356567	84.569000	1.6858
1356.112793	84.569000	1.7408
1365.939697	84.569000	1.8010
1375.837891	84.569000	1.8707
1385.807739	84.569000	1.9529
1395.849854	84.569008	2.0575
1405.964844	84.569000	2.1814
1416.152954	84.569000	2.3672
1426.415039	84.552834	2.7148
1436.751465	84.568832	3.0499
1447.162720	84.697960	3.1941
1457.649414	84.827576	3.2538
1468.212158	84.822739	3.3046
1478.851440	84.827866	3.2664
1489.567871	84.999283	3.1001
1500.361816	85.171432	2.7578
1511.234131	85.202705	2.0723
1522.185059	85.172234	1.3600
1533.215454	85.111153	0.8835
1544.325806	85.025414	0.6454
1555.516602	84.912392	0.7810
1566.788574	84.828239	1.1500
1578.142090	84.836937	1.7538
1589.578003	84.913536	2.3002
1601.096680	85.091095	2.4127
1612.698975	85.258430	2.3406
1624.385254	85.264488	2.1991
1636.156250	85.258942	2.0238
1648.012451	85.377380	1.9413
1659.954590	85.516502	1.7917
1671.983398	85.601830	1.4276
1684.099243	85.677681	0.9343
1696.302856	85.777153	0.3454
1708.594971	85.861687	-0.3278
1720.976196	85.895912	-1.0951
1733.447144	85.902023	-1.8607
1746.008423	85.885719	-2.5151
1758.660645	85.862099	-3.1067
1771.404663	85.854782	-3.6500
1784.240967	85.844063	-4.1401
1797.170288	85.809021	-4.5739
1810.193359	85.776100	-4.9596
1823.310791	85.767502	-5.2668
1836.523193	85.775932	-5.6085
1849.831421	85.817024	-6.1180
1863.236084	85.843964	-6.7052
1876.737793	85.803642	-7.3766
1890.337524	85.729378	-7.9738
1904.035645	85.621880	-8.2924
1917.833008	85.527306	-8.4735
1931.730469	85.509377	-8.5590
1945.728638	85.516945	-8.6475
1959.828125	85.516373	-8.8616
1974.029907	85.516998	-9.1734
1988.334473	85.533096	-9.6567
2002.742798	85.517174	-10.1273
2017.255493	85.388557	-10.4041
2031.873291	85.259430	-10.5468
2046.597168	85.243477	-10.4977
2061.427734	85.258926	-10.4302
2076.365479	85.258835	-10.5527
2091.411865	85.249069	-10.7064
2106.566895	85.206993	-10.7780
