* Measurement data measured by REW V5.20 Beta 53
* Source: C:\Users\Napie\Music\REW\Top Speakers\New Folder\1-LW.txt
* Format: Comma/Tab/Space delimited data
* Dated: May 26, 2020 2:34:13 PM
* REW Settings:
*  C-weighting compensation: Off
*  Target level: 75.0 dB
* Note: ; Measurement imported from C:\Users\Napie\Music\REW\Top Speakers\New Folder\1-LW.txt Format: Comma/Tab/Space delimited data 623 values loaded, 5 Hz to 39,792 Hz log spaced 
* Measurement: 1-LW
* Smoothing: None
* Frequency Step: 1/96 octave
* Start Frequency: 20.000 Hz
*
* Freq(Hz)	SPL(dB)	Phase(degrees)
20.000000	59.408813	-141.4674
20.144928	59.600822	-142.0960
20.290907	59.792831	-142.7804
20.437943	59.993225	-143.5629
20.586044	60.176880	-144.4014
20.735220	60.323830	-145.3428
20.885475	60.426907	-146.1622
21.036821	60.433990	-146.5922
21.189262	60.459927	-146.8058
21.342808	60.637619	-146.8237
21.497467	60.861717	-146.8369
21.653246	61.063236	-147.0907
21.810154	61.264729	-147.4445
21.968201	61.465752	-147.8367
22.127390	61.666779	-148.2745
22.287735	61.868252	-148.7442
22.449242	62.069843	-149.2476
22.611917	62.271362	-149.7828
22.775772	62.472752	-150.3473
22.940815	62.673737	-150.9367
23.107054	62.874737	-151.5542
23.274498	63.076218	-152.2007
23.443153	63.277725	-152.8781
23.613033	63.478783	-153.5881
23.784142	63.679825	-154.3313
23.956491	63.881306	-155.1065
24.130091	64.082771	-155.9210
24.304947	64.283752	-156.7793
24.481071	64.484741	-157.6888
24.658470	64.686218	-158.6544
24.837156	64.887718	-159.6885
25.017136	65.088753	-160.7930
25.198421	65.289795	-162.0037
25.381020	65.491249	-163.3167
25.564941	65.692810	-164.8534
25.750195	65.929893	-166.8213
25.936790	66.095871	-168.9593
26.124741	66.059944	-171.1654
26.314051	65.929237	-173.1673
26.504732	65.764244	-174.6163
26.696796	65.575233	-175.6390
26.890253	65.400711	-176.2903
27.085112	65.216225	-176.4411
27.281382	64.959412	-175.8676
27.479073	64.782143	-174.9085
27.678198	64.878593	-173.7777
27.878765	65.060722	-172.6286
28.080786	65.164833	-171.7172
28.284271	65.309738	-170.9500
28.489231	65.583580	-170.2396
28.695675	65.916519	-169.8203
28.903616	66.276230	-169.9205
29.113064	66.637497	-170.4719
29.324028	66.975586	-171.5446
29.536524	67.256714	-172.9502
29.750557	67.430717	-174.5963
29.966141	67.521950	-176.2632
30.183289	67.521034	-177.6874
30.402010	67.479057	-178.9066
30.622314	67.455284	-179.8605
30.844217	67.416061	179.4197
31.067726	67.339180	178.8994
31.292856	67.249146	178.6492
31.519617	67.159500	178.7214
31.748020	67.081085	179.1383
31.978081	67.001556	-179.9455
32.209808	67.003914	-178.8754
32.443211	67.224327	-177.9475
32.678310	67.491661	-177.1569
32.915108	67.639130	-176.6536
33.153625	67.787788	-176.2684
33.393871	68.017899	-175.8046
33.635857	68.286568	-175.4933
33.879597	68.592552	-175.5372
34.125103	68.890610	-175.8284
34.372387	69.127563	-176.3815
34.621464	69.325722	-177.0300
34.872345	69.479294	-177.5979
35.125042	69.619835	-178.1284
35.379574	69.785362	-178.5964
35.635948	69.950806	-179.0315
35.894180	70.093941	-179.4401
36.154285	70.243774	-179.8673
36.416275	70.437386	179.6384
36.680161	70.628716	179.0799
36.945961	70.777863	178.3991
37.213688	70.902832	177.7309
37.483353	70.990425	177.2603
37.754974	71.094803	176.7808
38.028561	71.311188	176.0966
38.304131	71.503799	175.3580
38.581699	71.519577	174.6157
38.861279	71.504013	173.9749
39.142883	71.582817	173.5836
39.426529	71.663910	173.3632
39.712231	71.665871	173.2923
40.000000	71.680939	173.3448
40.289856	71.804428	173.4937
40.581814	71.946800	173.7206
40.875885	72.018768	174.0061
41.172089	72.113823	174.3265
41.470440	72.320885	174.6938
41.770950	72.565582	174.9816
42.073643	72.792702	175.0631
42.378525	73.032639	174.9503
42.685616	73.316666	174.5974
42.994934	73.587639	174.0529
43.306492	73.790367	173.2906
43.620308	73.949783	172.4892
43.936401	74.061783	171.8267
44.254780	74.158844	171.2808
44.575470	74.269806	170.9408
44.898483	74.401756	170.6484
45.223835	74.589279	170.2694
45.551544	74.778740	169.8197
45.881630	74.920937	169.2323
46.214108	75.036842	168.6239
46.548996	75.135437	168.0499
46.886307	75.203926	167.6285
47.226067	75.206322	167.5248
47.568283	75.220947	167.6536
47.912983	75.332458	168.0297
48.260181	75.486717	168.5172
48.609894	75.646904	169.0020
48.962143	75.844658	169.4324
49.316940	76.117477	169.7308
49.674313	76.411522	169.8609
50.034271	76.695335	169.6363
50.396843	76.938675	169.4302
50.762039	77.024651	169.7206
51.129883	77.181580	170.0116
51.500389	77.713295	169.9895
51.873581	78.279083	169.5792
52.249481	78.581009	168.3992
52.628101	78.789703	167.0562
53.009464	78.962959	166.1521
53.393593	79.144653	165.3274
53.780506	79.441551	164.3848
54.170223	79.722595	163.4326
54.562763	79.852516	162.4398
54.958145	79.948837	161.6291
55.356396	80.076187	161.3157
55.757530	80.259636	161.1931
56.161572	80.554634	161.1616
56.568542	80.934303	160.9127
56.978462	81.425354	160.0688
57.391350	81.922119	158.7369
57.807232	82.314232	156.8177
58.226128	82.641487	154.5541
58.648056	82.916908	152.0910
59.073048	83.111748	149.6250
59.501114	83.169136	147.3875
59.932281	83.185974	145.4193
60.366577	83.233261	143.9772
60.804020	83.332764	142.6434
61.244629	83.577927	141.0597
61.688435	83.824623	139.2972
62.135452	83.934120	137.2063
62.585712	83.981956	135.0935
63.039234	83.990509	133.2422
63.496040	83.982018	131.5756
63.956161	83.982735	130.1645
64.419617	84.002937	128.8473
64.886421	84.082161	127.4691
65.356621	84.158882	126.0795
65.830215	84.168755	124.6458
66.307251	84.159019	123.2615
66.787743	84.158997	122.0284
67.271713	84.158997	120.8910
67.759193	84.158997	119.8173
68.250206	84.158997	118.8387
68.744774	84.147942	118.0148
69.242928	84.158943	117.2294
69.744690	84.246071	116.3659
70.250084	84.335846	115.4837
70.759148	84.341682	114.6205
71.271896	84.355942	113.7247
71.788361	84.480011	112.7532
72.308571	84.601807	111.7170
72.832550	84.613815	110.5678
73.360321	84.602020	109.4410
73.891922	84.622948	108.5129
74.427376	84.658913	107.6147
74.966705	84.722443	106.6126
75.509949	84.778923	105.5750
76.057121	84.786507	104.5073
76.608261	84.779022	103.4660
77.163399	84.778999	102.5241
77.722557	84.778999	101.6377
78.285767	84.778999	100.7865
78.853058	84.778999	99.9706
79.424461	84.778999	99.1831
80.000000	84.778999	98.4244
80.579712	84.778999	97.6935
81.163628	84.778999	96.9883
81.751770	84.779938	96.3027
82.344177	84.779007	95.6483
82.940880	84.774261	95.0170
83.541901	84.764023	94.4620
84.147285	84.731682	94.0713
84.757050	84.719986	93.7336
85.371231	84.787277	93.3803
85.989868	84.870834	92.9699
86.612984	84.921852	92.3876
87.240616	84.955948	91.7852
87.872803	84.960930	91.2996
88.509560	84.971962	90.8629
89.150940	85.031425	90.4711
89.796967	85.105843	90.0669
90.447670	85.171928	89.5849
91.103088	85.240852	89.0452
91.763260	85.323715	88.4243
92.428215	85.397881	87.7872
93.097992	85.426132	87.2175
93.772614	85.462891	86.6362
94.452133	85.575882	85.9914
95.136566	85.688797	85.2845
95.825966	85.733124	84.4434
96.520363	85.751976	83.6376
97.219788	85.750671	83.0851
97.924286	85.774902	82.5701
98.633881	85.906219	81.9361
99.348625	86.042770	81.2185
100.068542	86.080139	80.3820
100.793686	86.105919	79.4833
101.524078	86.197815	78.5756
102.259766	86.282822	77.6344
103.000778	86.296379	76.6214
103.747162	86.289032	75.6299
104.498962	86.294182	74.7629
105.256203	86.299995	73.9544
106.018929	86.305489	73.1715
106.787186	86.310989	72.4164
107.561012	86.316551	71.6813
108.340446	86.321991	70.9651
109.125526	86.326996	70.2645
109.916290	86.331993	69.5782
110.712791	86.337433	68.9042
111.515060	86.342995	68.2423
112.323143	86.348488	67.5920
113.137085	86.353989	66.9523
113.956924	86.359482	66.3221
114.782700	86.364983	65.7006
115.614464	86.370544	65.0865
116.452255	86.375992	64.4801
117.296112	86.380989	63.8812
118.146095	86.385994	63.2892
119.002228	86.391434	62.7036
119.864563	86.396988	62.1245
120.733154	86.402481	61.5524
121.608040	86.407982	60.9862
122.489258	86.413544	60.4252
123.376869	86.418983	59.8694
124.270905	86.423988	59.3183
125.171425	86.428993	58.7720
126.078468	86.434433	58.2302
126.992081	86.439987	57.6932
127.912323	86.445488	57.1609
128.839233	86.450981	56.6330
129.772842	86.456482	56.1095
130.713242	86.461983	55.5900
131.660431	86.467545	55.0740
132.614502	86.472984	54.5614
133.575485	86.477989	54.0519
134.543427	86.482994	53.5459
135.518387	86.488434	53.0434
136.500412	86.493996	52.5449
137.489548	86.499489	52.0511
138.485855	86.504982	51.5612
139.489380	86.510483	51.0745
140.500168	86.515991	50.5920
141.518295	86.521545	50.1140
142.543793	86.526985	49.6422
143.576721	86.531982	49.1755
144.617142	86.536995	48.7230
145.665100	86.539925	48.2981
146.720642	86.547966	47.8851
147.783844	86.567810	47.4910
148.854752	86.598900	47.0612
149.933411	86.650925	46.5321
151.019897	86.699898	45.9365
152.114243	86.719284	45.2695
153.216522	86.725998	44.5819
154.326797	86.727623	43.9306
155.445114	86.726006	43.2934
156.571533	86.725998	42.6721
157.706116	86.725998	42.0514
158.848923	86.725998	41.4260
160.000000	86.725998	40.7676
161.159424	86.737053	40.0049
162.327255	86.726059	39.2616
163.503540	86.637711	38.6539
164.688354	86.549164	38.1360
165.881760	86.537933	37.7487
167.083801	86.548965	37.3472
168.294571	86.559494	36.7395
169.514099	86.549072	36.1055
170.742462	86.466728	35.5743
171.979736	86.381195	35.1101
173.225967	86.363152	34.7398
174.481232	86.357010	34.4027
175.745605	86.313034	34.0729
177.019119	86.283035	33.6731
178.301880	86.339371	33.0676
179.593933	86.372009	32.4047
180.895340	86.248978	31.7786
182.206177	86.106308	31.2182
183.526520	86.074989	30.7912
184.856430	86.041122	30.4746
186.195984	85.892792	30.2778
187.545227	85.752266	30.1711
188.904266	85.744980	30.1424
190.273132	85.752007	30.1480
191.651932	85.663742	30.1162
193.040726	85.575195	30.1189
194.439575	85.563927	30.2448
195.848572	85.574959	30.3737
197.267761	85.574997	30.3892
198.697250	85.575005	30.3651
200.137085	85.574997	30.3288
201.587372	85.574997	30.3050
203.048157	85.563942	30.3698
204.519531	85.574913	30.3971
206.001556	85.663239	30.2717
207.494324	85.751816	30.0337
208.997925	85.763069	29.6462
210.512405	85.752037	29.2260
212.037857	85.751999	28.9007
213.574371	85.751999	28.6027
215.122025	85.751999	28.3052
216.680893	85.751999	28.0108
218.251053	85.751999	27.7139
219.832581	85.752007	27.4119
221.425583	85.751999	27.1020
223.030121	85.751999	26.7789
224.646286	85.751999	26.4438
226.274170	85.751999	26.0740
227.913849	85.759239	25.6244
229.565399	85.752045	25.1621
231.228928	85.697975	24.7443
232.904510	85.636177	24.3571
234.592224	85.609383	24.0001
236.292191	85.575119	23.6887
238.004456	85.491119	23.4219
239.729126	85.398239	23.2483
241.466309	85.325859	23.2417
243.216080	85.267128	23.3267
244.978516	85.223526	23.4727
246.753738	85.199036	23.6166
248.541809	85.211205	23.6616
250.342850	85.221001	23.6790
252.156937	85.178513	23.7014
253.984161	85.133095	23.7498
255.824646	85.127495	23.8771
257.678467	85.132996	24.0206
259.545685	85.133003	24.1190
261.426483	85.133003	24.2197
263.320862	85.130821	24.3499
265.229004	85.132980	24.5115
267.150970	85.141579	24.7360
269.086853	85.167885	24.9624
271.036774	85.230476	25.1519
273.000824	85.309753	25.2698
274.979095	85.390999	25.2692
276.971710	85.477737	25.1476
278.978760	85.575729	24.8750
281.000336	85.663788	24.4872
283.036591	85.719498	23.9829
285.087585	85.751938	23.4426
287.153442	85.757500	22.9495
289.234283	85.752022	22.4941
291.330200	85.751999	22.1053
293.441284	85.751999	21.7510
295.567688	85.751999	21.4086
297.709503	85.752007	21.0779
299.866821	85.751999	20.7527
302.039795	85.751999	20.4290
304.228485	85.751999	20.1045
306.433044	85.751999	19.7679
308.653595	85.754311	19.4050
310.890228	85.752014	19.0231
313.143066	85.740608	18.6030
315.412231	85.715096	18.2111
317.697845	85.658043	17.9180
320.000000	85.602142	17.6906
322.318848	85.581467	17.5451
324.654510	85.574997	17.4025
327.007080	85.576180	17.1772
329.376709	85.575012	16.9039
331.763519	85.559067	16.5696
334.167603	85.529114	16.2330
336.589142	85.476974	15.9481
339.028198	85.417175	15.7166
341.484924	85.364082	15.5590
343.959473	85.310158	15.4712
346.451935	85.247612	15.4595
348.962463	85.191139	15.5118
351.491211	85.154648	15.6359
354.038239	85.133041	15.7786
356.603760	85.129372	15.8875
359.187866	85.132988	15.9678
361.790680	85.133003	16.0009
364.412354	85.133011	16.0070
367.053040	85.133003	16.0006
369.712860	85.133011	15.9811
372.391968	85.133003	15.9524
375.090454	85.133011	15.9151
377.808533	85.133003	15.8710
380.546265	85.133003	15.8202
383.303864	85.133003	15.7639
386.081451	85.133003	15.7012
388.879150	85.133003	15.6323
391.697144	85.133003	15.5552
394.535522	85.133003	15.4708
397.394501	85.133003	15.3702
400.274170	85.135002	15.2448
403.174744	85.133018	15.0955
406.096313	85.126106	14.8883
409.039062	85.101112	14.7214
412.003113	85.026756	14.6990
414.988647	84.956192	14.7706
417.995850	84.946930	14.9447
421.024811	84.955963	15.1473
424.075714	84.953506	15.2905
427.148743	84.955971	15.4246
430.244049	84.963318	15.6263
433.361786	84.995842	15.7319
436.502106	85.108772	15.5456
439.665161	85.197823	15.2361
442.851166	85.139381	14.8589
446.060242	85.044296	14.5616
449.292572	84.990517	14.5765
452.548340	84.956078	14.7065
455.827698	84.950493	14.8286
459.130798	84.955978	14.9476
462.457855	84.956001	15.0184
465.809021	84.955994	15.0709
469.184448	84.956001	15.1207
472.584381	84.955994	15.1669
476.008911	84.956001	15.2131
479.458252	84.956001	15.2599
482.932617	84.956001	15.3085
486.432159	84.955994	15.3599
489.957031	84.956001	15.4152
493.507477	84.955994	15.4749
497.083618	84.956001	15.5391
500.685699	84.956001	15.6078
504.313873	84.956001	15.6833
507.968323	84.956001	15.7588
511.649292	84.959747	15.8131
515.356934	84.956032	15.8906
519.091370	84.927917	16.0196
522.852966	84.896103	16.2281
526.641724	84.871490	16.5884
530.458008	84.866966	16.9977
534.301941	84.912315	17.3719
538.173706	84.967819	17.7239
542.073547	84.996788	17.9987
546.001648	85.018921	18.3157
549.958191	85.022758	18.8473
553.943420	85.065758	19.3834
557.957520	85.233116	19.8044
562.000671	85.431343	20.0068
566.073181	85.598061	19.7491
570.175171	85.722679	19.3255
574.306885	85.744606	18.9773
578.468567	85.751945	18.6282
582.660400	85.847412	18.2735
586.882568	85.928802	17.9352
591.135376	85.898109	17.5881
595.419006	85.842186	17.3684
599.733643	85.818542	17.4606
604.079590	85.819946	17.6970
608.456970	85.862366	17.9841
612.866089	85.932724	18.2800
617.307190	86.023285	18.5139
621.780457	86.133606	18.6796
626.286133	86.260620	18.7584
630.824463	86.404488	18.7174
635.395691	86.567429	18.5304
640.000000	86.740395	18.1567
644.637695	86.924255	17.5195
649.309021	87.091476	16.6991
654.014160	87.200356	15.7656
658.753418	87.293686	14.6730
663.527039	87.430908	13.3519
668.335205	87.521835	11.9398
673.178284	87.462494	10.5093
678.056396	87.351410	9.1881
682.969849	87.265678	8.1523
687.918945	87.168358	7.3315
692.903870	87.030098	6.7393
697.924927	86.903374	6.2973
702.982422	86.853134	5.9366
708.076477	86.814156	5.6420
713.207520	86.722145	5.3772
718.375732	86.637253	5.1378
723.581360	86.620155	4.9061
728.824707	86.607079	4.6858
734.106079	86.531906	4.4790
739.425720	86.460220	4.2717
744.783936	86.461845	4.0380
750.180908	86.460060	3.8157
755.617065	86.368729	3.6515
761.092529	86.283234	3.4946
766.607727	86.309372	3.2996
772.162903	86.332993	3.0958
777.758301	86.237640	2.8741
783.394287	86.132324	2.7045
789.071045	86.106476	2.7151
794.789001	86.105980	2.7221
800.548340	86.112869	2.5334
806.349487	86.106064	2.2958
812.192627	86.040817	2.0980
818.078125	85.970230	1.9265
824.006226	85.947060	1.8142
829.977295	85.929070	1.7095
835.991699	85.885612	1.5494
842.049622	85.833199	1.3986
848.151428	85.778267	1.3018
854.297485	85.721214	1.2561
860.488098	85.659782	1.2924
866.723572	85.608162	1.3518
873.004211	85.589989	1.3860
879.330322	85.575058	1.3931
885.702332	85.537155	1.3343
892.120483	85.487190	1.2722
898.585144	85.429787	1.2346
905.096680	85.358299	1.2876
911.655396	85.251335	1.5311
918.261597	85.157280	1.8925
924.915710	85.130974	2.3670
931.618042	85.132957	2.8483
938.368896	85.144951	3.1927
945.168762	85.156967	3.5058
952.017822	85.137444	3.8739
958.916504	85.132957	4.2148
965.865234	85.202271	4.4788
972.864319	85.278740	4.6516
979.914062	85.303574	4.6667
987.014954	85.309998	4.6312
994.167236	85.317490	4.6136
1001.371399	85.310051	4.6636
1008.627747	85.260567	4.8706
1015.936646	85.221100	5.1835
1023.298584	85.244789	5.6283
1030.713867	85.302765	6.0627
1038.182739	85.391960	6.3228
1045.705933	85.486610	6.4974
1053.283447	85.540932	6.6539
1060.916016	85.611618	6.6962
1068.603882	85.772049	6.5392
1076.347412	85.928436	6.2137
1084.147095	85.987671	5.6845
1092.003296	86.017906	5.0662
1099.916382	86.067390	4.4839
1107.886841	86.105881	3.8726
1115.915039	86.117004	3.1903
1124.001343	86.106079	2.4885
1132.146362	86.075226	1.7895
1140.350342	86.018272	1.1404
1148.613770	85.925240	0.5836
1156.937134	85.809532	0.1555
1165.320801	85.685638	-0.1328
1173.765137	85.540703	-0.1646
1182.270752	85.336853	0.2128
1190.838013	85.162582	0.9045
1199.467285	85.099442	1.9995
1208.159180	85.132675	3.0970
1216.913940	85.312225	3.8005
1225.732178	85.524261	4.1773
1234.614380	85.651527	4.1040
1243.560913	85.751656	3.7626
1252.572266	85.854507	3.2871
1261.648926	85.928780	2.7015
1270.791382	85.943886	2.0490
1280.000000	85.926125	1.4034
1289.275391	85.892303	0.8523
1298.618042	85.841248	0.3997
1308.028320	85.767746	0.1084
1317.506836	85.700249	-0.1112
1327.054077	85.685112	-0.3451
1336.670410	85.664139	-0.5433
1346.356567	85.571884	-0.6898
1356.112793	85.474327	-0.7668
1365.939697	85.433571	-0.7429
1375.837891	85.398178	-0.6445
1385.807739	85.320824	-0.4922
1395.849854	85.249245	-0.2740
1405.964844	85.225739	0.0374
1416.152954	85.221001	0.3748
1426.415039	85.216438	0.6707
1436.751465	85.220963	0.9520
1447.162720	85.236351	1.2365
1457.649414	85.265846	1.4851
1468.212158	85.317337	1.6655
1478.851440	85.378746	1.7737
1489.567871	85.432274	1.8359
1500.361816	85.502670	1.7308
1511.234131	85.641434	1.3065
1522.185059	85.751656	0.6782
1533.215454	85.734070	-0.1854
1544.325806	85.644524	-0.9929
1555.516602	85.493217	-1.4542
1566.788574	85.320732	-1.5912
1578.142090	85.157051	-1.2370
1589.578003	85.044312	-0.6716
1601.096680	85.067162	-0.1088
1612.698975	85.128738	0.4130
1624.385254	85.140076	0.7598
1636.156250	85.158875	1.0081
1648.012451	85.222763	1.2362
1659.954590	85.305672	1.3081
1671.983398	85.413811	1.0404
1684.099243	85.486824	0.6498
1696.302856	85.433212	0.2762
1708.594971	85.351357	-0.0289
1720.976196	85.327644	-0.1348
1733.447144	85.310089	-0.1411
1746.008423	85.263145	-0.1089
1758.660645	85.221146	-0.0275
1771.404663	85.215431	0.1055
1784.240967	85.220970	0.2563
1797.170288	85.215446	0.4030
1810.193359	85.220940	0.5137
1823.310791	85.265305	0.5460
1836.523193	85.309853	0.5103
1849.831421	85.318062	0.3763
1863.236084	85.310059	0.2246
1876.737793	85.293152	0.1279
1890.337524	85.270111	0.0820
1904.035645	85.243111	0.1139
1917.833008	85.221069	0.2015
1931.730469	85.212379	0.3573
1945.728638	85.220924	0.5055
1959.828125	85.262794	0.5742
1974.029907	85.309814	0.5632
1988.334473	85.337975	0.4213
2002.742798	85.349991	0.2308
2017.255493	85.338142	0.0411
2031.873291	85.310135	-0.0976
2046.597168	85.263199	-0.1030
2061.427734	85.221146	-0.0225
2076.365479	85.209877	0.1616
2091.411865	85.220909	0.3344
2106.566895	85.270424	0.3472
