* Measurement data measured by REW V5.20 Beta 53
* Source: C:\Users\Napie\Music\REW\Top Speakers\New Folder\3-LW.txt
* Format: Comma/Tab/Space delimited data
* Dated: May 26, 2020 2:45:38 PM
* REW Settings:
*  C-weighting compensation: Off
*  Target level: 75.0 dB
* Note: ; Measurement imported from C:\Users\Napie\Music\REW\Top Speakers\New Folder\3-LW.txt Format: Comma/Tab/Space delimited data 623 values loaded, 5 Hz to 39,792 Hz log spaced 
* Measurement: 3-LW
* Smoothing: 1/48 octave
* Frequency Step: 1/96 octave
* Start Frequency: 20.000 Hz
*
* Freq(Hz)	SPL(dB)	Phase(degrees)
20.000000	59.523880	173.2096
20.144928	59.631451	173.7551
20.290907	59.772846	174.3604
20.437943	60.016487	174.9425
20.586044	60.293800	175.4447
20.735220	60.544277	175.7748
20.885475	60.811672	175.9579
21.036821	61.125782	176.0478
21.189262	61.468555	175.8664
21.342808	61.862644	175.1699
21.497467	62.215622	174.2083
21.653246	62.395676	173.1531
21.810154	62.542793	171.9996
21.968201	62.798065	170.8137
22.127390	63.027786	169.5544
22.287735	63.118759	168.1279
22.449242	63.148987	166.7580
22.611917	63.159687	165.6655
22.775772	63.149017	164.7670
22.940815	63.133469	164.0304
23.107054	63.099060	163.5215
23.274498	63.022987	163.2886
23.443153	62.948090	163.3527
23.613033	62.902531	163.8146
23.784142	62.907967	164.4834
23.956491	63.005619	165.2583
24.130091	63.164787	165.9673
24.304947	63.385586	166.3670
24.481071	63.616707	166.5699
24.658470	63.789894	166.5894
24.837156	63.955765	166.4802
25.017136	64.152016	166.3256
25.198421	64.349800	166.0533
25.381020	64.535400	165.5974
25.564941	64.700851	165.0216
25.750195	64.835114	164.3356
25.936790	64.933907	163.6358
26.124741	64.978828	163.0278
26.314051	65.000977	162.4937
26.504732	65.041458	162.0160
26.696796	65.052017	161.6983
26.890253	64.970055	161.6371
27.085112	64.879089	161.8366
27.281382	64.862389	162.3320
27.479073	64.859009	163.1257
27.678198	64.797249	164.2857
27.878765	64.791939	165.6520
28.080786	64.973366	167.1348
28.284271	65.224625	168.5901
28.489231	65.445732	169.8641
28.695675	65.714569	170.8948
28.903616	66.122772	171.5286
29.113064	66.530457	171.8867
29.324028	66.780823	172.0138
29.536524	67.014709	171.9871
29.750557	67.358788	171.9146
29.966141	67.700638	171.7482
30.183289	67.935806	171.4725
30.402010	68.165695	171.0965
30.622314	68.489471	170.6433
30.844217	68.810623	170.0558
31.067726	69.053757	169.2114
31.292856	69.253723	168.3293
31.519617	69.406296	167.6232
31.748020	69.553810	166.9888
31.978081	69.756744	166.3805
32.209808	69.956757	165.8327
32.443211	70.081520	165.4249
32.678310	70.232758	164.9757
32.915108	70.545700	164.3001
33.153625	70.848671	163.4861
33.393871	70.965500	162.4970
33.635857	71.042870	161.5234
33.879597	71.187019	160.8151
34.125103	71.344780	160.1599
34.372387	71.501656	159.3924
34.621464	71.646797	158.6192
34.872345	71.752869	157.8920
35.125042	71.854874	157.2118
35.379574	71.979965	156.6482
35.635948	72.124817	156.0468
35.894180	72.315872	155.2437
36.154285	72.490768	154.3354
36.416275	72.581703	153.3042
36.680161	72.630951	152.3304
36.945961	72.648293	151.6147
37.213688	72.663971	151.0797
37.483353	72.713654	150.7560
37.754974	72.790855	150.5184
38.028561	72.905746	150.2712
38.304131	73.043808	149.9555
38.581699	73.202782	149.4559
38.861279	73.355789	148.8460
39.142883	73.463615	148.1677
39.426529	73.560867	147.4011
39.712231	73.693077	146.4958
40.000000	73.788910	145.5853
40.289856	73.759827	144.7694
40.581814	73.702087	144.0998
40.875885	73.707375	143.6443
41.172089	73.702042	143.4541
41.470440	73.593468	143.6635
41.770950	73.529022	144.0902
42.073643	73.668900	144.6964
42.378525	73.883675	145.1805
42.685616	74.103638	145.1428
42.994934	74.307732	144.8386
43.306492	74.440964	144.3468
43.620308	74.535889	143.7998
43.936401	74.601540	143.3716
44.254780	74.653923	143.0165
44.575470	74.719086	142.7328
44.898483	74.775925	142.5612
45.223835	74.792480	142.5801
45.551544	74.826920	142.6758
45.881630	74.957985	142.7451
46.214108	75.092812	142.8338
46.548996	75.133316	142.9367
46.886307	75.172913	143.1057
47.226067	75.290031	143.4320
47.568283	75.432747	143.7934
47.912983	75.570953	144.0741
48.260181	75.716751	144.3445
48.609894	75.864128	144.6794
48.962143	76.037704	144.9517
49.316940	76.285919	145.0295
49.674313	76.531631	145.0011
50.034271	76.685966	144.8992
50.396843	76.831764	144.7592
50.762039	77.046150	144.6289
51.129883	77.258652	144.5042
51.500389	77.401756	144.3734
51.873581	77.542732	144.3070
52.249481	77.722656	144.4689
52.628101	77.953560	144.5680
53.009464	78.295151	144.3596
53.393593	78.645432	143.8651
53.780506	78.915848	142.9234
54.170223	79.124710	141.8378
54.562763	79.251030	140.8065
54.958145	79.324913	139.9870
55.356396	79.342148	139.6555
55.757530	79.384880	139.6547
56.161572	79.536049	140.0699
56.568542	79.789490	140.4486
56.978462	80.209511	140.3697
57.391350	80.667168	139.8215
57.807232	81.056175	138.5166
58.226128	81.371536	136.8620
58.648056	81.554962	135.0933
59.073048	81.660873	133.4415
59.501114	81.687263	132.3449
59.932281	81.745819	131.4176
60.366577	82.004936	130.4661
60.804020	82.293526	129.3461
61.244629	82.486977	127.7038
61.688435	82.611855	125.9749
62.135452	82.619400	124.5221
62.585712	82.611992	123.2161
63.039234	82.708069	122.0759
63.496040	82.811836	121.0157
63.956161	82.844086	119.9439
64.419617	82.871941	118.8968
64.886421	82.958160	117.8730
65.356621	83.037888	116.8947
65.830215	83.041061	115.9929
66.307251	83.044960	115.1406
66.787743	83.131760	114.3168
67.271713	83.217880	113.5344
67.759193	83.217018	112.7983
68.250206	83.217972	112.1112
68.744774	83.303947	111.5134
69.242928	83.406822	110.8971
69.744690	83.484253	110.1065
70.250084	83.540916	109.3244
70.759148	83.544617	108.7344
71.271896	83.563919	108.1810
71.788361	83.695168	107.5483
72.308571	83.823792	106.8983
72.832550	83.829453	106.2224
73.360321	83.823990	105.6180
73.891922	83.888718	105.2801
74.427376	83.996758	104.9079
74.966705	84.180473	104.1847
75.509949	84.342773	103.3486
76.057121	84.348465	102.5361
76.608261	84.342972	101.7386
77.163399	84.467789	101.0274
77.722557	84.601753	100.2975
78.285767	84.647240	99.4253
78.853058	84.672951	98.5357
79.424461	84.728333	97.7157
80.000000	84.774925	96.9574
80.579712	84.774757	96.2844
81.163628	84.774986	95.6881
81.751770	84.820702	95.1915
82.344177	84.880875	94.7220
82.940880	84.937195	94.2073
83.541901	84.995895	93.6681
84.147285	85.063316	93.0756
84.757050	85.120918	92.5060
85.371231	85.133850	92.0480
85.989868	85.156914	91.6358
86.612984	85.250656	91.2663
87.240616	85.363770	90.8400
87.872803	85.470673	90.1904
88.509560	85.553871	89.5134
89.150940	85.561813	88.9674
89.796967	85.570953	88.5009
90.447670	85.659790	88.1514
91.103088	85.771767	87.8077
91.763260	85.871239	87.3429
92.428215	85.972794	86.8410
93.097992	86.069176	86.4002
93.772614	86.190727	85.8533
94.452133	86.400444	85.0255
95.136566	86.593666	84.0352
95.825966	86.654800	82.8906
96.520363	86.677963	81.7483
97.219788	86.725456	80.8177
97.924286	86.778893	79.9507
98.633881	86.844933	79.0610
99.348625	86.909882	78.1698
100.068542	86.958405	77.2642
100.793686	87.001900	76.3622
101.524078	87.047386	75.4843
102.259766	87.092888	74.6101
103.000778	87.138901	73.7317
103.747162	87.184906	72.8318
104.498962	87.235664	71.8762
105.256203	87.275940	70.9078
106.018929	87.284866	69.9510
106.787186	87.284004	69.0267
107.561012	87.290169	68.1748
108.340446	87.296989	67.3623
109.125526	87.303543	66.5685
109.916290	87.309982	65.7954
110.712791	87.315987	65.0380
111.515060	87.321983	64.2955
112.323143	87.328484	63.5660
113.137085	87.334984	62.8475
113.956924	87.340988	62.1380
114.782700	87.346985	61.4358
115.614464	87.353615	60.7387
116.452255	87.359993	60.0453
117.296112	87.365807	59.3514
118.146095	87.369995	58.6624
119.002228	87.370628	57.9817
119.864563	87.370003	57.3108
120.733154	87.370003	56.6540
121.608040	87.370003	56.0064
122.489258	87.370003	55.3645
123.376869	87.370003	54.7275
124.270905	87.370003	54.0941
125.171425	87.370003	53.4621
126.078468	87.370003	52.8302
126.992081	87.370003	52.1944
127.912323	87.370003	51.5562
128.839233	87.370003	50.8983
129.772842	87.375809	50.1860
130.713242	87.370033	49.4724
131.660431	87.328613	48.7874
132.614502	87.277145	48.1666
133.575485	87.231285	47.6833
134.543427	87.197052	47.2548
135.518387	87.191994	46.8324
136.500412	87.196983	46.3859
137.489548	87.200119	45.8569
138.485855	87.197021	45.2805
139.489380	87.185112	44.6241
140.500168	87.147133	44.0312
141.518295	87.039650	43.6514
142.543793	86.938210	43.4333
143.576721	86.914131	43.4533
144.617142	86.937912	43.4771
145.665100	87.020470	43.2701
146.720642	87.110779	42.9072
147.783844	87.150673	42.3547
148.854752	87.171951	41.7057
149.933411	87.193642	41.0261
151.019897	87.197029	40.3655
152.114243	87.152000	39.8176
153.216522	87.111076	39.3173
154.326797	87.133354	38.8581
155.445114	87.169914	38.3572
156.571533	87.187157	37.7200
157.706116	87.196983	36.9758
158.848923	87.216797	36.0634
160.000000	87.197113	35.1600
161.159424	87.061234	34.4146
162.327255	86.907326	33.8530
163.503540	86.818031	33.6278
164.688354	86.765076	33.5072
165.881760	86.756119	33.3174
167.083801	86.764969	33.0349
168.294571	86.781235	32.5010
169.514099	86.765106	31.9482
170.742462	86.635345	31.5777
171.979736	86.505287	31.3285
173.225967	86.488739	31.2625
174.481232	86.504951	31.2102
175.745605	86.499565	31.0254
177.019119	86.504959	30.6980
178.301880	86.566246	30.1014
179.593933	86.592033	29.4386
180.895340	86.458565	28.8675
182.206177	86.306320	28.4009
183.526520	86.263618	28.1788
184.856430	86.246033	27.9775
186.195984	86.216652	27.5450
187.545227	86.159180	27.1030
188.904266	86.023979	26.7830
190.273132	85.874359	26.6082
191.651932	85.763382	26.6848
193.040726	85.673218	26.8943
194.439575	85.601105	27.1743
195.848572	85.554092	27.4612
197.267761	85.549049	27.6723
198.697250	85.553993	27.8018
200.137085	85.543472	27.7767
201.587372	85.514091	27.7171
203.048157	85.443398	27.7237
204.519531	85.363228	27.7837
206.001556	85.312759	27.8875
207.494324	85.248192	28.1252
208.997925	85.110832	28.5850
210.512405	84.983253	29.2641
212.037857	84.936104	30.2617
213.574371	84.947899	31.3593
215.122025	85.028107	32.3751
216.680893	85.153610	33.2947
218.251053	85.290482	34.1185
219.832581	85.480354	34.6232
221.425583	85.813080	34.4976
223.030121	86.111374	34.0017
224.646286	86.168785	33.2112
226.274170	86.159035	32.3740
227.913849	86.206123	31.8431
229.565399	86.256882	31.3801
231.228928	86.300529	30.8442
232.904510	86.331932	30.2897
234.592224	86.345062	29.6897
236.292191	86.332077	29.1483
238.004456	86.267616	28.7690
239.729126	86.198174	28.5275
241.466309	86.170166	28.4592
243.216080	86.159012	28.4858
244.978516	86.150688	28.5456
246.753738	86.158943	28.6228
248.541809	86.196236	28.7027
250.342850	86.252808	28.7211
252.156937	86.329529	28.6002
253.984161	86.406807	28.3648
255.824646	86.465492	27.9846
257.678467	86.504929	27.5471
259.545685	86.511131	27.1281
261.426483	86.505020	26.7339
263.320862	86.504997	26.4092
265.229004	86.504997	26.1148
267.150970	86.504997	25.8337
269.086853	86.504997	25.5439
271.036774	86.515800	25.1748
273.000824	86.505081	24.8548
274.979095	86.418770	24.6951
276.971710	86.332207	24.6778
278.978760	86.315750	24.8713
281.000336	86.331924	25.1273
283.036591	86.365501	25.3218
285.087585	86.418808	25.4488
287.153442	86.496010	25.4508
289.234283	86.576797	25.3584
291.330200	86.634293	25.1885
293.441284	86.691826	24.9249
295.567688	86.778458	24.5381
297.709503	86.850845	24.0843
299.866821	86.860947	23.5813
302.039795	86.851036	23.1153
304.228485	86.840195	22.8447
306.433044	86.850922	22.5709
308.653595	86.941544	22.1242
310.890228	87.023834	21.5707
313.143066	87.008286	20.8653
315.412231	86.955170	20.1738
317.697845	86.897308	19.6589
320.000000	86.829216	19.2869
322.318848	86.745857	19.1069
324.654510	86.678169	19.0301
327.007080	86.668556	19.0046
329.376709	86.677956	18.9672
331.763519	86.680374	18.8161
334.167603	86.678017	18.6157
336.589142	86.666245	18.3736
339.028198	86.640099	18.1595
341.484924	86.581543	18.0571
343.959473	86.525131	18.0320
346.451935	86.507835	18.0974
348.962463	86.504997	18.1927
351.491211	86.503746	18.2444
354.038239	86.504997	18.3028
356.603760	86.499130	18.4069
359.187866	86.504951	18.5187
361.790680	86.542366	18.6381
364.412354	86.598816	18.6900
367.053040	86.674393	18.5960
369.712860	86.750771	18.3649
372.391968	86.815712	17.9338
375.090454	86.850967	17.4394
377.808533	86.819817	16.9790
380.546265	86.765167	16.6099
383.303864	86.716248	16.4540
386.081451	86.678085	16.4150
388.879150	86.666817	16.4623
391.697144	86.677933	16.5179
394.535522	86.718796	16.4995
397.394501	86.769852	16.3885
400.274170	86.821487	16.0893
403.174744	86.850960	15.7500
406.096313	86.808090	15.5146
409.039062	86.765091	15.3026
412.003113	86.811028	15.0574
414.988647	86.846962	14.8496
417.995850	86.762489	14.7281
421.024811	86.678200	14.7029
424.075714	86.705406	14.8504
427.148743	86.764793	15.0205
430.244049	86.797058	15.1030
433.361786	86.850769	15.0514
436.502106	86.985939	14.7588
439.665161	87.110687	14.2967
442.851166	87.127388	13.6628
446.060242	87.111069	12.9731
449.292572	87.119049	12.3472
452.548340	87.109070	11.7726
455.827698	87.043678	11.2594
459.130798	86.964256	10.8581
462.457855	86.898621	10.6649
465.809021	86.851105	10.5533
469.184448	86.843925	10.4410
472.584381	86.850967	10.2876
476.008911	86.858177	9.9897
479.458252	86.851059	9.6541
482.932617	86.797325	9.3581
486.432159	86.736183	9.0888
489.957031	86.710709	8.8482
493.507477	86.678131	8.6674
497.083618	86.588173	8.5943
500.685699	86.505226	8.5820
504.313873	86.499481	8.6148
507.968323	86.505005	8.6459
511.649292	86.468140	8.5863
515.356934	86.420158	8.5460
519.091370	86.370842	8.6319
522.852966	86.332100	8.7675
526.641724	86.326492	8.9190
530.458008	86.331978	9.0636
534.301941	86.332001	9.1520
538.173706	86.332001	9.2297
542.073547	86.328629	9.3329
546.001648	86.331970	9.4406
549.958191	86.351723	9.5635
553.943420	86.385872	9.6429
557.957520	86.443367	9.6100
562.000671	86.500832	9.5045
566.073181	86.526848	9.3497
570.175171	86.553886	9.1269
574.306885	86.614037	8.8501
578.468567	86.677788	8.4427
582.660400	86.736542	7.7844
586.882568	86.759026	7.0187
591.135376	86.702477	6.1846
595.419006	86.592445	5.4790
599.733643	86.414619	5.1778
604.079590	86.246513	5.0860
608.456970	86.197182	5.1014
612.866089	86.159164	5.2155
617.307190	86.029953	5.3592
621.780457	85.900383	5.6129
626.286133	85.840446	6.0838
630.824463	85.813057	6.6252
635.395691	85.802124	7.1225
640.000000	85.812927	7.5835
644.637695	85.843666	8.0117
649.309021	85.899757	8.3073
654.014160	86.003075	8.3661
658.753418	86.102707	8.2029
663.527039	86.161018	7.7016
668.335205	86.159134	7.1517
673.178284	86.033066	6.8065
678.056396	85.880486	6.6641
682.969849	85.791756	6.8660
687.918945	85.727188	7.2326
692.903870	85.679459	7.6066
697.924927	85.640137	8.0583
702.982422	85.586357	8.6237
708.076477	85.554054	9.2517
713.207520	85.580650	9.9377
718.375732	85.639740	10.5769
723.581360	85.724495	11.0328
728.824707	85.812714	11.3939
734.106079	85.865562	11.7171
739.425720	85.925743	11.9633
744.783936	86.043694	12.0990
750.180908	86.158623	12.1619
755.617065	86.204613	12.1683
761.092529	86.245819	12.1501
766.607727	86.334892	12.1917
772.162903	86.442596	12.1524
777.758301	86.566948	11.8854
783.394287	86.677666	11.4896
789.071045	86.731606	11.0035
794.789001	86.764893	10.4650
800.548340	86.810234	9.9132
806.349487	86.835968	9.3818
812.192627	86.805084	8.9215
818.078125	86.765121	8.5193
824.006226	86.766861	8.1818
829.977295	86.765038	7.8999
835.991699	86.719193	7.6402
842.049622	86.664200	7.4823
848.151428	86.613022	7.5550
854.297485	86.591995	7.6796
860.488098	86.654968	7.7202
866.723572	86.732735	7.6724
873.004211	86.759125	7.4670
879.330322	86.776932	7.1633
885.702332	86.820915	6.7950
892.120483	86.850945	6.3716
898.585144	86.833122	5.8647
905.096680	86.782249	5.4204
911.655396	86.688492	5.1895
918.261597	86.592331	5.1319
924.915710	86.532478	5.3066
931.618042	86.505028	5.5650
938.368896	86.527420	5.7912
945.168762	86.573799	5.9436
952.017822	86.627678	5.9183
958.916504	86.677834	5.7877
965.865234	86.700935	5.5907
972.864319	86.716949	5.3271
979.914062	86.748772	4.9943
987.014954	86.764984	4.6364
994.167236	86.730049	4.2802
1001.371399	86.678192	3.9749
1008.627747	86.635170	3.7894
1015.936646	86.592186	3.6912
1023.298584	86.543297	3.6849
1030.713867	86.505089	3.7278
1038.182739	86.499550	3.7877
1045.705933	86.504967	3.8378
1053.283447	86.504997	3.8305
1060.916016	86.504997	3.7962
1068.603882	86.504997	3.7508
1076.347412	86.504997	3.6913
1084.147095	86.504997	3.6208
1092.003296	86.504997	3.5353
1099.916382	86.504997	3.4379
1107.886841	86.504997	3.3106
1115.915039	86.510742	3.1209
1124.001343	86.505051	2.9147
1132.146362	86.466354	2.7132
1140.350342	86.413223	2.5594
1148.613770	86.358665	2.4978
1156.937134	86.298256	2.5455
1165.320801	86.221626	2.7554
1173.765137	86.159210	3.0655
1182.270752	86.150299	3.4352
1190.838013	86.158951	3.8512
1199.467285	86.148201	4.2959
1208.159180	86.158882	4.7423
1216.913940	86.228546	5.1985
1225.732178	86.331581	5.5411
1234.614380	86.462936	5.6359
1243.560913	86.597511	5.5208
1252.572266	86.709793	5.1528
1261.648926	86.795715	4.6433
1270.791382	86.835770	4.0772
1280.000000	86.850975	3.4923
1289.275391	86.854439	2.9767
1298.618042	86.851013	2.4642
1308.028320	86.862045	1.8877
1317.506836	86.851128	1.3353
1327.054077	86.768074	0.8794
1336.670410	86.674347	0.5023
1346.356567	86.637764	0.1933
1356.112793	86.591232	0.0014
1365.939697	86.456856	-0.0124
1375.837891	86.332420	0.1072
1385.807739	86.315796	0.3834
1395.849854	86.331917	0.6740
1405.964844	86.332001	0.8099
1416.152954	86.332001	0.8918
1426.415039	86.332001	0.9637
1436.751465	86.331993	1.0307
1447.162720	86.332001	1.0932
1457.649414	86.332008	1.2074
1468.212158	86.308723	1.5170
1478.851440	86.331764	1.7624
1489.567871	86.510544	1.7438
1500.361816	86.704323	1.4180
1511.234131	86.799500	0.5447
1522.185059	86.820091	-0.4834
1533.215454	86.727348	-1.3380
1544.325806	86.597588	-2.0572
1555.516602	86.514053	-2.5632
1566.788574	86.419464	-2.8811
1578.142090	86.264366	-3.0332
1589.578003	86.105637	-2.9519
1601.096680	85.976387	-2.4967
1612.698975	85.900169	-1.9055
1624.385254	85.927742	-1.3133
1636.156250	86.010551	-0.8942
1648.012451	86.134926	-0.9178
1659.954590	86.245674	-1.2343
1671.983398	86.276939	-1.8697
1684.099243	86.246269	-2.5593
1696.302856	86.127411	-3.0335
1708.594971	85.986626	-3.3291
1720.976196	85.889023	-3.3408
1733.447144	85.813293	-3.2286
1746.008423	85.764801	-3.1221
1758.660645	85.727150	-3.0124
1771.404663	85.683678	-2.9423
1784.240967	85.640175	-2.8842
1797.170288	85.597168	-2.8222
1810.193359	85.554169	-2.7632
1823.310791	85.511978	-2.7118
1836.523193	85.467186	-2.6592
1849.831421	85.415482	-2.6003
1863.236084	85.360252	-2.5284
1876.737793	85.303261	-2.4257
1890.337524	85.245255	-2.3194
1904.035645	85.198540	-2.2758
1917.833008	85.130341	-2.1607
1931.730469	84.983620	-1.8439
1945.728638	84.842529	-1.3764
1959.828125	84.790634	-0.7071
1974.029907	84.775024	-0.0129
1988.334473	84.777359	0.4983
2002.742798	84.775047	0.9671
2017.255493	84.724045	1.4586
2031.873291	84.670197	1.9977
2046.597168	84.650482	2.6549
2061.427734	84.648972	3.3569
2076.365479	84.656799	4.0824
2091.411865	84.688805	4.7435
2106.566895	84.780487	5.2041
2121.832031	84.861748	5.5845
2137.207764	84.847809	5.9224
2152.694824	84.816109	6.3331
