* Measurement data measured by REW V5.20 Beta 53
* Source: C:\Users\Napie\Music\REW\Top Speakers\New Folder\8-DI.txt
* Format: Comma/Tab/Space delimited data
* Dated: May 26, 2020 3:11:02 PM
* REW Settings:
*  C-weighting compensation: Off
*  Target level: 75.0 dB
* Note: ; Measurement imported from C:\Users\Napie\Music\REW\Top Speakers\New Folder\8-DI.txt Format: Comma/Tab/Space delimited data 623 values loaded, 5 Hz to 39,792 Hz log spaced 
* Measurement: 8-DI
* Smoothing: None
* Frequency Step: 1/96 octave
* Start Frequency: 20.000 Hz
*
* Freq(Hz)	SPL(dB)	Phase(degrees)
20.000000	50.617016	-10.1312
20.144928	50.599518	-9.8877
20.290907	50.582016	-9.6063
20.437943	50.558952	-9.2540
20.586044	50.547001	-8.8683
20.735220	50.567848	-8.4785
20.885475	50.600960	-8.0765
21.036821	50.615276	-7.6128
21.189262	50.663906	-7.2404
21.342808	50.819099	-7.0611
21.497467	50.992794	-7.1796
21.653246	51.134541	-7.8654
21.810154	51.202972	-8.7268
21.968201	51.098045	-9.4765
22.127390	50.945168	-10.0675
22.287735	50.853703	-10.2928
22.449242	50.773064	-10.3460
22.611917	50.687023	-10.3632
22.775772	50.601105	-10.3121
22.940815	50.520985	-10.2305
23.107054	50.430134	-10.0433
23.274498	50.300747	-9.7004
23.443153	50.172165	-9.1649
23.613033	50.063725	-8.2986
23.784142	50.008015	-7.3548
23.956491	50.079659	-6.5611
24.130091	50.171906	-5.8578
24.304947	50.170570	-5.2839
24.481071	50.171978	-4.7697
24.658470	50.250244	-4.1929
24.837156	50.358837	-3.7485
25.017136	50.491535	-3.6569
25.198421	50.600918	-3.7209
25.381020	50.606949	-3.8013
25.564941	50.600998	-3.9408
25.750195	50.683598	-4.1432
25.936790	50.747955	-4.3877
26.124741	50.694485	-4.7161
26.314051	50.601147	-4.9448
26.504732	50.509186	-4.8410
26.696796	50.430080	-4.5924
26.890253	50.410706	-4.3433
27.085112	50.386051	-3.9935
27.281382	50.278019	-3.5105
27.479073	50.172123	-2.8331
27.678198	50.129150	-1.8029
27.878765	50.145924	-0.6776
28.080786	50.258869	0.3248
28.284271	50.409779	1.2418
28.489231	50.519135	2.1243
28.695675	50.686707	2.7155
28.903616	51.058887	2.7328
29.113064	51.417561	2.3029
29.324028	51.544212	1.3332
29.536524	51.583988	0.2003
29.750557	51.618103	-0.7108
29.966141	51.622013	-1.5142
30.183289	51.588989	-2.1836
30.402010	51.546055	-2.7563
30.622314	51.528896	-3.2588
30.844217	51.505043	-3.6965
31.067726	51.447472	-4.1106
31.292856	51.375118	-4.4206
31.519617	51.288303	-4.5247
31.748020	51.216068	-4.5280
31.978081	51.199566	-4.4731
32.209808	51.202984	-4.4470
32.443211	51.212368	-4.6050
32.678310	51.203030	-4.7858
32.915108	51.122177	-4.8669
33.153625	51.040092	-4.8850
33.393871	51.025318	-4.7866
33.635857	51.030983	-4.7210
33.879597	51.046051	-4.8966
34.125103	51.031055	-5.0848
34.372387	50.906693	-5.1001
34.621464	50.781158	-5.0182
34.872345	50.772121	-4.8369
35.125042	50.773014	-4.6053
35.379574	50.686611	-4.3816
35.635948	50.601086	-4.1363
35.894180	50.600933	-3.8618
36.154285	50.601021	-3.5495
36.416275	50.515644	-3.1944
36.680161	50.430111	-2.7787
36.945961	50.429928	-2.3030
37.213688	50.430019	-1.7070
37.483353	50.329212	-0.9028
37.754974	50.260044	0.0265
38.028561	50.353558	1.1122
38.304131	50.514759	2.0988
38.581699	50.690235	2.7208
38.861279	50.884693	3.0388
39.142883	51.095444	3.0094
39.426529	51.291752	2.6796
39.712231	51.444260	2.0276
40.000000	51.545891	1.2173
40.289856	51.572563	0.3577
40.581814	51.546074	-0.4080
40.875885	51.460636	-0.8573
41.172089	51.375111	-1.1187
41.470440	51.364307	-1.2102
41.770950	51.374977	-1.2429
42.073643	51.375000	-1.3552
42.378525	51.375000	-1.4838
42.685616	51.375000	-1.6090
42.994934	51.375000	-1.7368
43.306492	51.375000	-1.8659
43.620308	51.375000	-1.9988
43.936401	51.375000	-2.1365
44.254780	51.375004	-2.2828
44.575470	51.375000	-2.4366
44.898483	51.375000	-2.6137
45.223835	51.379311	-2.8400
45.551544	51.375011	-3.0846
45.881630	51.346992	-3.3402
46.214108	51.306068	-3.5627
46.548996	51.255451	-3.6992
46.886307	51.203079	-3.7689
47.226067	51.160690	-3.7803
47.568283	51.120068	-3.7142
47.912983	51.064140	-3.5208
48.260181	51.031021	-3.3004
48.609894	51.070850	-3.1149
48.962143	51.130909	-3.0300
49.316940	51.173195	-3.1607
49.674313	51.202965	-3.4215
50.034271	51.218243	-3.8062
50.396843	51.203049	-4.1905
50.762039	51.117146	-4.4172
51.129883	51.031128	-4.5778
51.500389	51.029610	-4.7026
51.873581	51.031013	-4.8188
52.249481	50.962883	-4.9936
52.628101	50.881142	-5.1368
53.009464	50.823650	-5.1543
53.393593	50.773079	-5.1241
53.780506	50.723640	-5.0889
54.170223	50.678078	-5.0620
54.562763	50.644310	-5.0884
54.958145	50.601086	-5.1150
55.356396	50.519333	-5.1032
55.757530	50.430141	-5.0531
56.161572	50.369106	-4.9807
56.568542	50.294147	-4.7994
56.978462	50.144951	-4.4016
57.391350	50.011204	-3.8661
57.807232	49.987816	-3.1891
58.226128	49.999966	-2.5111
58.648056	49.999313	-2.0058
59.073048	50.000004	-1.5717
59.501114	50.000000	-1.1654
59.932281	50.000000	-0.7847
60.366577	50.000000	-0.4158
60.804020	50.000000	-0.0506
61.244629	50.000000	0.3129
61.688435	50.000000	0.7073
62.135452	49.987633	1.2101
62.585712	49.999943	1.6892
63.039234	50.095070	2.0376
63.496040	50.197853	2.2558
63.956161	50.240330	2.2625
64.419617	50.257984	2.1961
64.886421	50.265377	2.1639
65.356621	50.258030	2.1789
65.830215	50.225437	2.3144
66.307251	50.200027	2.4966
66.787743	50.225376	2.6874
67.271713	50.257946	2.8527
67.759193	50.266434	2.9040
68.250206	50.257034	2.9668
68.744774	50.214520	3.1438
69.242928	50.172062	3.4164
69.744690	50.158314	3.8440
70.250084	50.171944	4.2952
70.759148	50.231121	4.6668
71.271896	50.305862	4.9326
71.788361	50.376251	4.9939
72.308571	50.429920	4.9661
72.832550	50.437756	4.9207
73.360321	50.430019	4.8930
73.891922	50.430000	4.9499
74.427376	50.430000	5.0677
74.966705	50.422005	5.2727
75.509949	50.429962	5.4816
76.057121	50.491180	5.6213
76.608261	50.557877	5.6880
77.163399	50.587460	5.6222
77.722557	50.600990	5.5182
78.285767	50.603691	5.4573
78.853058	50.601009	5.4191
79.424461	50.601002	5.4147
80.000000	50.601006	5.4300
80.579712	50.601002	5.4543
81.163628	50.601006	5.4879
81.751770	50.601002	5.5280
82.344177	50.600998	5.5739
82.940880	50.601002	5.6243
83.541901	50.601006	5.6789
84.147285	50.601002	5.7368
84.757050	50.601006	5.7979
85.371231	50.601002	5.8616
85.989868	50.600998	5.9279
86.612984	50.601002	5.9969
87.240616	50.601006	6.0679
87.872803	50.601002	6.1400
88.509560	50.601002	6.2138
89.150940	50.601002	6.2896
89.796967	50.601002	6.3668
90.447670	50.601002	6.4453
91.103088	50.601002	6.5248
91.763260	50.601002	6.6054
92.428215	50.601006	6.6868
93.097992	50.601002	6.7693
93.772614	50.601002	6.8518
94.452133	50.601002	6.9338
95.136566	50.601002	7.0148
95.825966	50.601002	7.0953
96.520363	50.601002	7.1728
97.219788	50.601002	7.2477
97.924286	50.601006	7.3129
98.633881	50.602188	7.3639
99.348625	50.601013	7.3930
100.068542	50.601017	7.3553
100.793686	50.582081	7.3569
101.524078	50.505016	7.5035
102.259766	50.430149	7.7523
103.000778	50.420494	8.1221
103.747162	50.429977	8.5322
104.498962	50.426815	8.8940
105.256203	50.429985	9.2483
106.018929	50.447952	9.6317
106.787186	50.480919	9.9704
107.561012	50.544075	10.1764
108.340446	50.600929	10.3288
109.125526	50.601822	10.4793
109.916290	50.600990	10.6227
110.712791	50.650330	10.7936
111.515060	50.707886	10.9248
112.323143	50.747116	10.9302
113.137085	50.772961	10.9001
113.956924	50.777065	10.8931
114.782700	50.773014	10.9189
115.614464	50.772999	11.0014
116.452255	50.772999	11.1556
117.296112	50.756886	11.4664
118.146095	50.772911	11.7485
119.002228	50.901669	11.8268
119.864563	51.030716	11.7544
120.733154	51.047131	11.4720
121.608040	51.031040	11.1427
122.489258	51.030998	10.9548
123.376869	51.030998	10.7755
124.270905	51.043800	10.4873
125.171425	51.031059	10.2294
126.078468	50.932026	10.1132
126.992081	50.826199	10.1059
127.912323	50.797478	10.2189
128.839233	50.773064	10.4295
129.772842	50.683868	10.7159
130.713242	50.601135	11.0862
131.660431	50.590240	11.5710
132.614502	50.600960	12.0806
133.575485	50.601002	12.5039
134.543427	50.601002	12.9342
135.518387	50.593006	13.4441
136.500412	50.600964	13.9860
137.489548	50.645988	14.5983
138.485855	50.728745	15.0940
139.489380	50.887638	15.2472
140.500168	51.030750	15.2112
141.518295	51.049892	15.0130
142.543793	51.031059	14.8094
143.576721	51.030998	14.7959
144.617142	51.030998	14.8857
145.665100	51.020256	15.0957
146.720642	51.030922	15.3085
147.783844	51.116756	15.3996
148.854752	51.202808	15.4061
149.933411	51.213757	15.2868
151.019897	51.203033	15.1543
152.114243	51.202999	15.1299
153.216522	51.202999	15.1479
154.326797	51.202999	15.1816
155.445114	51.202999	15.2339
156.571533	51.202999	15.2988
157.706116	51.202999	15.3758
158.848923	51.202999	15.4623
160.000000	51.202999	15.5578
161.159424	51.202999	15.6609
162.327255	51.202999	15.7707
163.503540	51.202999	15.8872
164.688354	51.203003	16.0067
165.881760	51.202999	16.1303
167.083801	51.202999	16.2437
168.294571	51.207619	16.3232
169.514099	51.203030	16.3978
170.742462	51.177589	16.4478
171.979736	51.129166	16.5964
173.225967	51.032612	16.9816
174.481232	50.945156	17.5406
175.745605	50.928120	18.2913
177.019119	50.944927	19.1270
178.301880	50.973518	19.9519
179.593933	51.030811	20.7501
180.895340	51.129467	21.5097
182.206177	51.260654	22.1228
183.526520	51.436153	22.4470
184.856430	51.606647	22.5719
186.195984	51.711662	22.5198
187.545227	51.795811	22.3525
188.904266	51.897594	22.1180
190.273132	51.975857	21.8795
191.651932	51.977272	21.7358
193.040726	51.975971	21.6293
194.439575	52.055008	21.5464
195.848572	52.135807	21.4533
197.267761	52.151989	21.2653
198.697250	52.148022	21.1202
200.137085	52.138512	21.1847
201.587372	52.147938	21.2898
203.048157	52.229267	21.3088
204.519531	52.311798	21.2782
206.001556	52.326244	21.1433
207.494324	52.320026	21.0521
208.997925	52.304764	21.2147
210.512405	52.319901	21.3927
212.037857	52.445358	21.3988
213.574371	52.571739	21.2854
215.122025	52.590256	20.9868
216.680893	52.577057	20.6728
218.251053	52.577312	20.5214
219.832581	52.577000	20.4441
221.425583	52.577000	20.4015
223.030121	52.577000	20.4219
224.646286	52.566257	20.5620
226.274170	52.576927	20.6987
227.913849	52.662769	20.7147
229.565399	52.748825	20.6473
231.228928	52.759762	20.4573
232.904510	52.749043	20.2585
234.592224	52.749001	20.1734
236.292191	52.749001	20.1380
238.004456	52.749001	20.1262
239.729126	52.749001	20.1449
241.466309	52.749001	20.1876
243.216080	52.749001	20.2697
244.978516	52.743629	20.4205
246.753738	52.748959	20.5925
248.541809	52.786499	20.7613
250.342850	52.834858	20.8858
252.156937	52.883255	20.8898
253.984161	52.920929	20.8531
255.824646	52.926380	20.8183
257.678467	52.921021	20.8219
259.545685	52.919376	20.9185
261.426483	52.920990	21.0964
263.320862	52.919479	21.4110
265.229004	52.946857	21.7163
267.150970	53.060089	21.8745
269.086853	53.178699	21.9141
271.036774	53.225098	21.7666
273.000824	53.245960	21.5855
274.979095	53.259903	21.5246
276.971710	53.274944	21.5160
278.978760	53.306087	21.5681
281.000336	53.350864	21.6030
283.036591	53.422482	21.5281
285.087585	53.488827	21.3945
287.153442	53.514076	21.1921
289.234283	53.521992	21.0134
291.330200	53.515133	20.9904
293.441284	53.521942	20.9960
295.567688	53.591480	20.9455
297.709503	53.664833	20.8404
299.866821	53.688404	20.6197
302.039795	53.694000	20.3867
304.228485	53.695816	20.2336
306.433044	53.694008	20.1342
308.653595	53.691875	20.0963
310.890228	53.693985	20.1089
313.143066	53.702332	20.1934
315.412231	53.727898	20.2599
317.697845	53.798920	20.2066
320.000000	53.865837	20.0894
322.318848	53.874634	19.8990
324.654510	53.866035	19.7314
327.007080	53.860634	19.7098
329.376709	53.865955	19.7448
331.763519	53.898678	19.8189
334.167603	53.951805	19.8371
336.589142	54.038055	19.6698
339.028198	54.114822	19.4019
341.484924	54.129684	19.0509
343.959473	54.124027	18.6920
346.451935	54.124565	18.4267
348.962463	54.124004	18.1936
351.491211	54.124001	17.9728
354.038239	54.124001	17.7397
356.603760	54.132679	17.4363
359.187866	54.124069	17.1438
361.790680	54.061901	16.9076
364.412354	53.985222	16.7792
367.053040	53.919231	16.8628
369.712860	53.870110	17.0454
372.391968	53.860813	17.2553
375.090454	53.865978	17.4704
377.808533	53.865749	17.6302
380.546265	53.866001	17.7786
383.303864	53.866001	17.9314
386.081451	53.866001	18.1134
388.879150	53.857136	18.3825
391.697144	53.865929	18.6552
394.535522	53.929531	18.8837
397.394501	54.007771	19.0178
400.274170	54.074696	18.9505
403.174744	54.123886	18.8035
406.096313	54.131256	18.6550
409.039062	54.124031	18.5313
412.003113	54.123875	18.4923
414.988647	54.124001	18.5148
417.995850	54.117817	18.6192
421.024811	54.125935	18.7337
424.075714	54.179996	18.7971
427.148743	54.240818	18.7971
430.244049	54.275600	18.6719
433.361786	54.295959	18.5085
436.502106	54.299442	18.3765
439.665161	54.296017	18.2683
442.851166	54.296001	18.2051
446.060242	54.296001	18.1691
449.292572	54.296001	18.1483
452.548340	54.296001	18.1450
455.827698	54.296001	18.1566
459.130798	54.296001	18.1859
462.457855	54.296001	18.2299
465.809021	54.296001	18.3037
469.184448	54.290695	18.4395
472.584381	54.295956	18.5826
476.008911	54.335983	18.6887
479.458252	54.380867	18.7579
482.932617	54.402256	18.7652
486.432159	54.418945	18.7421
489.957031	54.445297	18.7103
493.507477	54.466946	18.6741
497.083618	54.470001	18.6368
500.685699	54.467010	18.6230
504.313873	54.466999	18.6582
507.968323	54.467003	18.7427
511.649292	54.461628	18.8965
515.356934	54.466953	19.0854
519.091370	54.499107	19.3161
522.852966	54.552792	19.4846
526.641724	54.644073	19.4571
530.458008	54.724785	19.3285
534.301941	54.735760	19.1229
538.173706	54.725044	18.9226
542.073547	54.724998	18.8383
546.001648	54.724998	18.8100
549.958191	54.724998	18.8076
553.943420	54.724998	18.8498
557.957520	54.719627	18.9631
562.000671	54.724949	19.0956
566.073181	54.764973	19.2049
570.175171	54.810856	19.2868
574.306885	54.836800	19.3039
578.468567	54.856934	19.3129
582.660400	54.873310	19.3778
586.882568	54.896889	19.4408
591.135376	54.947063	19.4693
595.419006	55.000824	19.4502
599.733643	55.041386	19.3354
604.079590	55.068928	19.1975
608.456970	55.073254	19.0886
612.866089	55.069019	19.0231
617.307190	55.069000	19.0269
621.780457	55.069000	19.1165
626.286133	55.052956	19.3763
630.824463	55.068855	19.6293
635.395691	55.195595	19.7083
640.000000	55.325619	19.6654
644.637695	55.349602	19.4502
649.309021	55.349003	19.2058
654.014160	55.376457	19.1025
658.753418	55.411865	19.0113
663.527039	55.458786	18.8384
668.335205	55.497894	18.6437
673.178284	55.503384	18.4406
678.056396	55.498020	18.2774
682.969849	55.492634	18.2337
687.918945	55.497952	18.2290
692.903870	55.535473	18.2223
697.924927	55.583828	18.1723
702.982422	55.632214	17.9990
708.076477	55.669891	17.7778
713.207520	55.675381	17.5500
718.375732	55.670025	17.3397
723.581360	55.669998	17.1947
728.824707	55.669998	17.0853
734.106079	55.669998	16.9956
739.425720	55.669998	16.9302
744.783936	55.669998	16.8844
750.180908	55.669998	16.8710
755.617065	55.666126	16.9106
761.092529	55.669960	16.9757
766.607727	55.694012	17.0667
772.162903	55.731842	17.1209
777.758301	55.790668	17.0508
783.394287	55.841854	16.9305
789.071045	55.846821	16.7903
794.789001	55.842014	16.6763
800.548340	55.849762	16.6889
806.349487	55.874870	16.6961
812.192627	55.946301	16.5801
818.078125	56.013805	16.3948
824.006226	56.022697	16.1287
829.977295	56.014042	15.8619
835.991699	56.014000	15.6885
842.049622	56.014000	15.5564
848.151428	56.014000	15.4426
854.297485	56.014000	15.3513
860.488098	56.014000	15.2782
866.723572	56.014000	15.2262
873.004211	56.014000	15.1944
879.330322	56.014000	15.1890
885.702332	56.014000	15.2079
892.120483	56.014000	15.2747
898.585144	56.008633	15.4175
905.096680	56.013947	15.6211
911.655396	56.040783	15.9237
918.261597	56.099709	16.1932
924.915710	56.221886	16.3062
931.618042	56.356514	16.2724
938.368896	56.454723	16.0318
945.168762	56.540691	15.6715
952.017822	56.621449	15.2814
958.916504	56.700691	14.7951
965.865234	56.796661	14.1515
972.864319	56.872784	13.4218
979.914062	56.883766	12.6447
987.014954	56.873051	11.8589
994.167236	56.873001	11.1603
1001.371399	56.873001	10.4168
1008.627747	56.896481	9.4539
1015.936646	56.873264	8.4909
1023.298584	56.702980	7.6655
1030.713867	56.497662	7.0535
1038.182739	56.348946	6.8419
1045.705933	56.221508	6.8337
1053.283447	56.113697	6.8789
1060.916016	56.014420	7.0212
1068.603882	55.906013	7.2509
1076.347412	55.806377	7.5814
1084.147095	55.725258	8.0528
1092.003296	55.670132	8.5762
1099.916382	55.661484	9.0749
1107.886841	55.669952	9.5511
1115.915039	55.666878	9.9669
1124.001343	55.669968	10.3675
1132.146362	55.682789	10.8253
1140.350342	55.719799	11.2227
1148.613770	55.817463	11.4407
1156.937134	55.913654	11.5527
1165.320801	55.936878	11.5713
1173.765137	55.949921	11.5620
1182.270752	55.997257	11.6493
1190.838013	56.064682	11.6702
1199.467285	56.169144	11.4682
1208.159180	56.260708	11.1425
1216.913940	56.278248	10.7143
1225.732178	56.271046	10.2656
1234.614380	56.271626	9.9185
1243.560913	56.271000	9.5743
1252.572266	56.283360	9.1301
1261.648926	56.271133	8.7175
1270.791382	56.176117	8.4361
1280.000000	56.073364	8.2833
1289.275391	56.031239	8.3379
1298.618042	56.014034	8.4535
1308.028320	56.010307	8.4986
1317.506836	56.013977	8.5041
1327.054077	56.014000	8.4577
1336.670410	56.014000	8.3605
1346.356567	56.019367	8.1949
1356.112793	56.014053	8.0047
1365.939697	55.976555	7.8189
1375.837891	55.928211	7.6645
1385.807739	55.885181	7.5880
1395.849854	55.842167	7.5610
1405.964844	55.799164	7.5648
1416.152954	55.756161	7.6167
1426.415039	55.707794	7.7441
1436.751465	55.670109	7.8994
1447.162720	55.664616	8.0546
1457.649414	55.669968	8.1766
1468.212158	55.670311	8.2215
1478.851440	55.670002	8.1943
1489.567871	55.676872	8.0605
1500.361816	55.665108	7.8946
1511.234131	55.600456	7.7421
1522.185059	55.515400	7.6562
1533.215454	55.434563	7.7070
1544.325806	55.348396	7.8899
1555.516602	55.246864	8.2320
1566.788574	55.155342	8.7067
1578.142090	55.100117	9.3166
1589.578003	55.069084	10.0000
1601.096680	55.057064	10.7030
1612.698975	55.068897	11.4041
1624.385254	55.106400	12.0986
1636.156250	55.173630	12.6828
1648.012451	55.293678	13.0304
1659.954590	55.411613	13.2017
1671.983398	55.469719	13.1693
1684.099243	55.497932	13.0734
1696.302856	55.503384	13.0546
1708.594971	55.498035	13.0867
1720.976196	55.498001	13.1927
1733.447144	55.498001	13.3631
1746.008423	55.492634	13.6096
1758.660645	55.497940	13.8918
1771.404663	55.535442	14.1776
1784.240967	55.583794	14.4529
1797.170288	55.622334	14.6969
1810.193359	55.669785	14.8983
1823.310791	55.742439	15.0650
1836.523193	55.827641	15.1201
1849.831421	55.930466	14.9555
1863.236084	56.013710	14.6715
1876.737793	56.030319	14.2987
1890.337524	56.014122	13.9404
1904.035645	55.982719	13.7147
1917.833008	55.939186	13.6092
1931.730469	55.886021	13.6714
1945.728638	55.842148	13.8371
1959.828125	55.835930	14.0676
1974.029907	55.841965	14.3318
1988.334473	55.841999	14.5678
2002.742798	55.841999	14.8298
2017.255493	55.838940	15.1505
2031.873291	55.841965	15.5353
2046.597168	55.853840	16.0246
2061.427734	55.890762	16.5457
2076.365479	55.972187	17.0876
2091.411865	56.091427	17.5037
2106.566895	56.268551	17.6178
2121.832031	56.442337	17.5039
2137.207764	56.550591	17.1075
2152.694824	56.614834	16.6418
2168.294189	56.620403	16.3193
2184.006592	56.615002	16.0928
2199.832764	56.647068	16.0335
2215.773682	56.700729	15.9962
2231.830078	56.786629	15.8376
2248.002686	56.872665	15.6200
