* Measurement data measured by REW V5.20 Beta 53
* Source: C:\Users\Napie\Music\REW\Top Speakers\New Folder\8-ER.txt
* Format: Comma/Tab/Space delimited data
* Dated: May 26, 2020 3:10:29 PM
* REW Settings:
*  C-weighting compensation: Off
*  Target level: 75.0 dB
* Note: ; Measurement imported from C:\Users\Napie\Music\REW\Top Speakers\New Folder\8-ER.txt Format: Comma/Tab/Space delimited data 623 values loaded, 5 Hz to 39,792 Hz log spaced 
* Measurement: 8-ER
* Smoothing: None
* Frequency Step: 1/96 octave
* Start Frequency: 20.000 Hz
*
* Freq(Hz)	SPL(dB)	Phase(degrees)
20.000000	59.214806	-126.7084
20.144928	59.426998	-127.4000
20.290907	59.623837	-128.0934
20.437943	59.768085	-128.7065
20.586044	59.910896	-129.2806
20.735220	60.109695	-129.8289
20.885475	60.308773	-130.3544
21.036821	60.453262	-130.8655
21.189262	60.597805	-131.3594
21.342808	60.799252	-131.8447
21.497467	60.996777	-132.2955
21.653246	61.126717	-132.7096
21.810154	61.253819	-133.0237
21.968201	61.418900	-133.0824
22.127390	61.630737	-133.1588
22.287735	61.951454	-133.5446
22.449242	62.261784	-134.0316
22.611917	62.406559	-134.4992
22.775772	62.554775	-134.9744
22.940815	62.868374	-135.3742
23.107054	63.214546	-135.9081
23.274498	63.503239	-136.8203
23.443153	63.766659	-137.9254
23.613033	64.011864	-139.1389
23.784142	64.224831	-140.3999
23.956491	64.386177	-141.6428
24.130091	64.518860	-142.7977
24.304947	64.628487	-143.7285
24.481071	64.747833	-144.5689
24.658470	64.931923	-145.4102
24.837156	65.119751	-146.2458
25.017136	65.252716	-147.1183
25.198421	65.377869	-147.9722
25.381020	65.529228	-148.7440
25.564941	65.687851	-149.5003
25.750195	65.845261	-150.2886
25.936790	66.003799	-151.1030
26.124741	66.166901	-151.9637
26.314051	66.322777	-152.8397
26.504732	66.453888	-153.7043
26.696796	66.580841	-154.5639
26.890253	66.725647	-155.4166
27.085112	66.866837	-156.2610
27.281382	66.983101	-157.0955
27.479073	67.095840	-157.9199
27.678198	67.226807	-158.7359
27.878765	67.353821	-159.5368
28.080786	67.453926	-160.3168
28.284271	67.550865	-161.0750
28.489231	67.668968	-161.8096
28.695675	67.783844	-162.5170
28.903616	67.871445	-163.2049
29.113064	67.954872	-163.8371
29.324028	68.045181	-164.3372
29.536524	68.154861	-164.8344
29.750557	68.320747	-165.4547
29.966141	68.480835	-166.1332
30.183289	68.568039	-166.8838
30.402010	68.633919	-167.5962
30.622314	68.706093	-168.1223
30.844217	68.789894	-168.5885
31.067726	68.912895	-169.0825
31.292856	69.035835	-169.5733
31.519617	69.117271	-170.0772
31.748020	69.190910	-170.5385
31.978081	69.278137	-170.8841
32.209808	69.374870	-171.1816
32.443211	69.489975	-171.4883
32.678310	69.605850	-171.7637
32.915108	69.698387	-171.9902
33.153625	69.795868	-172.1568
33.393871	69.918610	-172.2111
33.635857	70.066757	-172.2589
33.879597	70.259827	-172.4113
34.125103	70.459732	-172.6007
34.372387	70.608902	-172.7484
34.621464	70.784691	-172.9975
34.872345	71.090630	-173.4906
35.125042	71.391670	-174.1531
35.379574	71.546715	-174.9929
35.635948	71.675842	-175.9029
35.894180	71.877731	-176.7503
36.154285	72.076729	-177.6197
36.416275	72.213867	-178.5703
36.680161	72.336807	-179.5465
36.945961	72.482841	179.5115
37.213688	72.624809	178.5325
37.483353	72.756317	177.4070
37.754974	72.851891	176.3087
38.028561	72.857071	175.3902
38.304131	72.851990	174.6060
38.581699	72.923264	173.9679
38.861279	72.997902	173.4537
39.142883	73.003998	173.0662
39.426529	73.023941	172.7424
39.712231	73.153496	172.3966
40.000000	73.281837	172.1004
40.289856	73.285187	171.8972
40.581814	73.296936	171.7861
40.875885	73.440750	171.8430
41.172089	73.623718	171.8810
41.470440	73.787231	171.6988
41.770950	73.950729	171.4135
42.073643	74.114235	171.0784
42.378525	74.277771	170.6866
42.685616	74.441269	170.2503
42.994934	74.604774	169.7647
43.306492	74.768326	169.2381
43.620308	74.931747	168.6430
43.936401	75.103241	167.9291
44.254780	75.257782	167.1722
44.575470	75.359291	166.4291
44.898483	75.448853	165.7061
45.223835	75.566139	165.0405
45.551544	75.679840	164.3969
45.881630	75.768883	163.7263
46.214108	75.841904	163.1059
46.548996	75.895615	162.5995
46.886307	75.944923	162.1985
47.226067	76.007637	161.9030
47.568283	76.071892	161.7501
47.912983	76.110909	161.8323
48.260181	76.186813	161.9847
48.609894	76.385025	162.0850
48.962143	76.609665	162.0961
49.316940	76.776314	161.8978
49.674313	76.934738	161.6175
50.034271	77.110901	161.3664
50.396843	77.292717	161.0745
50.762039	77.483643	160.6740
51.129883	77.662712	160.2687
51.500389	77.789780	159.9577
51.873581	77.925735	159.6874
52.249481	78.134743	159.4695
52.628101	78.367607	159.2065
53.009464	78.593430	158.7841
53.393593	78.820610	158.2640
53.780506	79.047180	157.6711
54.170223	79.273628	157.0032
54.562763	79.499634	156.2675
54.958145	79.725639	155.4593
55.356396	79.952126	154.5816
55.757530	80.178627	153.6197
56.161572	80.404625	152.5782
56.568542	80.630623	151.4021
56.978462	80.873650	149.9931
57.391350	81.083664	148.4848
57.807232	81.194908	146.9481
58.226128	81.270889	145.4744
58.648056	81.357796	144.2003
59.073048	81.442863	143.0628
59.501114	81.515106	142.0959
59.932281	81.614777	141.1447
60.366577	81.802948	140.0934
60.804020	82.006668	138.8583
61.244629	82.178741	137.2429
61.688435	82.301842	135.4711
62.135452	82.336502	133.6237
62.585712	82.302116	131.9366
63.039234	82.173744	130.7183
63.496040	82.045181	129.8342
63.956161	82.018242	129.3450
64.419617	82.044907	128.9707
64.886421	82.128525	128.4036
65.356621	82.215874	127.7851
65.830215	82.232231	127.1487
66.307251	82.244957	126.5142
66.787743	82.317978	125.9040
67.271713	82.387901	125.3439
67.759193	82.385010	124.8759
68.250206	82.390961	124.4747
68.744774	82.485245	124.1683
69.242928	82.605789	123.8386
69.744690	82.714119	123.3419
70.250084	82.817810	122.7811
70.759148	82.906708	122.2169
71.271896	82.995842	121.6341
71.788361	83.100861	121.0461
72.308571	83.209785	120.4262
72.832550	83.316238	119.7443
73.360321	83.418816	119.0244
73.891922	83.513321	118.2800
74.427376	83.601837	117.5125
74.966705	83.689964	116.7022
75.509949	83.762886	115.9244
76.057121	83.791641	115.2629
76.608261	83.823906	114.6731
77.163399	83.910675	114.1628
77.722557	84.013786	113.6580
78.285767	84.109314	113.0711
78.853058	84.204819	112.4493
79.424461	84.299820	111.8115
80.000000	84.394814	111.1553
80.579712	84.490318	110.4844
81.163628	84.585815	109.7983
81.751770	84.680817	109.0979
82.344177	84.775803	108.3825
82.940880	84.871307	107.6545
83.541901	84.966820	106.9055
84.147285	85.064247	106.1183
84.757050	85.156830	105.3215
85.371231	85.230545	104.5574
85.989868	85.308830	103.7677
86.612984	85.428947	102.8806
87.240616	85.535828	101.9778
87.872803	85.562782	101.1071
88.509560	85.580948	100.2986
89.150940	85.647835	99.6572
89.796967	85.738777	99.0054
90.447670	85.864861	98.1507
91.103088	85.975807	97.2409
91.763260	85.999039	96.3531
92.428215	86.011963	95.5106
93.097992	86.081337	94.8086
93.772614	86.167816	94.1074
94.452133	86.261879	93.2475
95.136566	86.339867	92.3817
95.825966	86.349800	91.6358
96.520363	86.366928	90.9354
97.219788	86.473808	90.2758
97.924286	86.597748	89.5725
98.633881	86.685463	88.6956
99.348625	86.759865	87.7758
100.068542	86.818245	86.9323
100.793686	86.884819	86.0721
101.524078	86.995766	85.1584
102.259766	87.112717	84.1417
103.000778	87.213058	82.9129
103.747162	87.284904	81.6145
104.498962	87.295761	80.3438
105.256203	87.285027	79.1292
106.018929	87.285004	78.0526
106.787186	87.285004	77.0499
107.561012	87.285004	76.0834
108.340446	87.285004	75.1544
109.125526	87.285004	74.2523
109.916290	87.285004	73.3755
110.712791	87.285004	72.5199
111.515060	87.285004	71.6837
112.323143	87.285004	70.8639
113.137085	87.285004	70.0596
113.956924	87.285004	69.2697
114.782700	87.285004	68.4919
115.614464	87.285004	67.7235
116.452255	87.285004	66.9644
117.296112	87.285004	66.2141
118.146095	87.285004	65.4715
119.002228	87.285004	64.7354
119.864563	87.285011	64.0049
120.733154	87.285004	63.2796
121.608040	87.285004	62.5575
122.489258	87.285004	61.8372
123.376869	87.285004	61.1167
124.270905	87.285004	60.3945
125.171425	87.285004	59.6673
126.078468	87.285004	58.9339
126.992081	87.285004	58.1866
127.912323	87.285004	57.4263
128.839233	87.285004	56.6256
129.772842	87.292686	55.7416
130.713242	87.285042	54.8218
131.660431	87.237411	53.8658
132.614502	87.162247	52.9763
133.575485	87.055328	52.2606
134.543427	86.942207	51.7059
135.518387	86.842407	51.3919
136.500412	86.770096	51.1465
137.489548	86.775352	50.7698
138.485855	86.770073	50.4217
139.489380	86.641312	50.1829
140.500168	86.512238	50.0940
141.518295	86.482300	50.3285
142.543793	86.511856	50.5695
143.576721	86.617661	50.5083
144.617142	86.728790	50.2886
145.665100	86.752274	49.9443
146.720642	86.769913	49.5023
147.783844	86.858322	49.0051
148.854752	86.941826	48.4386
149.933411	86.952759	47.7600
151.019897	86.942039	47.0966
152.114243	86.931320	46.6259
153.216522	86.941925	46.1554
154.326797	87.027267	45.5405
155.445114	87.112831	44.8118
156.571533	87.123695	43.9301
157.706116	87.113029	42.9633
158.848923	87.128990	41.9335
160.000000	87.113091	40.9383
161.159424	86.990761	40.0888
162.327255	86.857269	39.3665
163.503540	86.804901	38.8369
164.688354	86.770073	38.3581
165.881760	86.717827	37.7700
167.083801	86.653191	37.1905
168.294571	86.560867	36.6990
169.514099	86.467216	36.2530
170.742462	86.406021	35.8345
171.979736	86.340195	35.4480
173.225967	86.239021	35.0461
174.481232	86.116295	34.7674
175.745605	85.957726	34.7727
177.019119	85.817284	34.9504
178.301880	85.759399	35.2849
179.593933	85.739021	35.6461
180.895340	85.734123	35.8788
182.206177	85.738976	36.0417
183.526520	85.738998	36.1334
184.856430	85.738998	36.1809
186.195984	85.738998	36.2102
187.545227	85.738991	36.2230
188.904266	85.738998	36.2283
190.273132	85.738998	36.2310
191.651932	85.738998	36.2354
193.040726	85.738998	36.2520
194.439575	85.738251	36.2863
195.848572	85.738991	36.3557
197.267761	85.738739	36.4864
198.697250	85.750946	36.6566
200.137085	85.782516	36.9149
201.587372	85.850784	37.0758
203.048157	86.009140	36.9282
204.519531	86.156639	36.5962
206.001556	86.181618	36.0739
207.494324	86.168060	35.5432
208.997925	86.163376	35.2386
210.512405	86.167961	34.9985
212.037857	86.208572	34.7355
213.574371	86.252899	34.4567
215.122025	86.269150	34.1338
216.680893	86.281960	33.7870
218.251053	86.312721	33.4276
219.832581	86.339943	33.0541
221.425583	86.343620	32.6595
223.030121	86.340012	32.2720
224.646286	86.339996	31.9257
226.274170	86.339996	31.5958
227.913849	86.339996	31.2708
229.565399	86.339996	30.9438
231.228928	86.341995	30.6007
232.904510	86.340019	30.2530
234.592224	86.327408	29.9016
236.292191	86.308060	29.5648
238.004456	86.284439	29.2523
239.729126	86.254089	28.9926
241.466309	86.207733	28.8321
243.216080	86.168083	28.7272
244.978516	86.162621	28.6621
246.753738	86.167976	28.6002
248.541809	86.167999	28.4890
250.342850	86.167999	28.3604
252.156937	86.167999	28.2296
253.984161	86.167999	28.0953
255.824646	86.167999	27.9609
257.678467	86.167999	27.8273
259.545685	86.167999	27.6963
261.426483	86.167999	27.5684
263.320862	86.167999	27.4441
265.229004	86.167999	27.3254
267.150970	86.167999	27.2133
269.086853	86.167999	27.1102
271.036774	86.167999	27.0153
273.000824	86.167999	26.9392
274.979095	86.165504	26.8953
276.971710	86.167976	26.8750
278.978760	86.179695	26.9033
281.000336	86.207901	26.8942
283.036591	86.276291	26.7512
285.087585	86.339844	26.5298
287.153442	86.348251	26.2295
289.234283	86.340027	25.9227
291.330200	86.339996	25.6990
293.441284	86.339996	25.5085
295.567688	86.339996	25.3300
297.709503	86.339996	25.1664
299.866821	86.339996	25.0139
302.039795	86.339996	24.8724
304.228485	86.339996	24.7409
306.433044	86.340004	24.6193
308.653595	86.339996	24.5070
310.890228	86.339989	24.4043
313.143066	86.339996	24.3109
315.412231	86.339996	24.2282
317.697845	86.339996	24.1569
320.000000	86.339996	24.0981
322.318848	86.339996	24.0523
324.654510	86.340004	24.0221
327.007080	86.339996	24.0092
329.376709	86.339996	24.0170
331.763519	86.339996	24.0468
334.167603	86.339996	24.1068
336.589142	86.339996	24.1971
339.028198	86.339996	24.3424
341.484924	86.334625	24.5748
343.959473	86.339958	24.8731
346.451935	86.372948	25.2362
348.962463	86.425827	25.6348
351.491211	86.488350	26.0769
354.038239	86.584656	26.4501
356.603760	86.756821	26.6399
359.187866	86.941460	26.6592
361.790680	87.077065	26.4484
364.412354	87.198662	26.1111
367.053040	87.320831	25.7573
369.712860	87.444611	25.3105
372.391968	87.584221	24.7280
375.090454	87.714653	24.0162
377.808533	87.817627	23.1254
380.546265	87.886864	22.1818
383.303864	87.897758	21.2917
386.081451	87.887032	20.4683
388.879150	87.887001	19.7798
391.697144	87.887001	19.1638
394.535522	87.887001	18.5799
397.394501	87.887001	18.0276
400.274170	87.887001	17.4949
403.174744	87.887001	16.9766
406.096313	87.887001	16.4694
409.039062	87.887001	15.9556
412.003113	87.892494	15.4005
414.988647	87.887047	14.8527
417.995850	87.848396	14.3367
421.024811	87.799164	13.8923
424.075714	87.751633	13.5936
427.148743	87.715080	13.3636
430.244049	87.709740	13.1567
433.361786	87.714973	12.9507
436.502106	87.714996	12.6980
439.665161	87.714996	12.4288
442.851166	87.714996	12.1584
446.060242	87.714996	11.8859
449.292572	87.714996	11.6146
452.548340	87.714989	11.3458
455.827698	87.714996	11.0807
459.130798	87.714996	10.8228
462.457855	87.714996	10.5709
465.809021	87.714996	10.3397
469.184448	87.709625	10.1617
472.584381	87.714951	9.9825
476.008911	87.755547	9.7589
479.458252	87.800865	9.4900
482.932617	87.821762	9.1501
486.432159	87.837952	8.7703
489.957031	87.864738	8.3717
493.507477	87.886948	7.9573
497.083618	87.890068	7.5303
500.685699	87.887016	7.1104
504.313873	87.887001	6.7239
507.968323	87.887001	6.3541
511.649292	87.887001	5.9917
515.356934	87.887001	5.6411
519.091370	87.887001	5.2987
522.852966	87.887001	4.9800
526.641724	87.881630	4.7151
530.458008	87.886955	4.4579
534.301941	87.924538	4.1809
538.173706	87.972832	3.8572
542.073547	88.015350	3.4385
546.001648	88.057854	2.9607
549.958191	88.095428	2.4734
553.943420	88.143814	1.8891
557.957520	88.235069	1.1205
562.000671	88.315788	0.2153
566.073181	88.326767	-0.8168
570.175171	88.316048	-1.9481
574.306885	88.332108	-3.1671
578.468567	88.316147	-4.4167
582.660400	88.207016	-5.6746
586.882568	88.058540	-6.8253
591.135376	87.901535	-7.7038
595.419006	87.745506	-8.4347
599.733643	87.619354	-9.0788
604.079590	87.495453	-9.6670
608.456970	87.357193	-10.2862
612.866089	87.199570	-10.8293
617.307190	86.999443	-11.2067
621.780457	86.794662	-11.4504
626.286133	86.631905	-11.5869
630.824463	86.462593	-11.5465
635.395691	86.221184	-11.2366
640.000000	86.003639	-10.7499
644.637695	85.913406	-10.1055
649.309021	85.865135	-9.4332
654.014160	85.793602	-8.8766
658.753418	85.739143	-8.4144
663.527039	85.741104	-8.0878
668.335205	85.739044	-7.8497
673.178284	85.670776	-7.7079
678.056396	85.579330	-7.5387
682.969849	85.487885	-7.2166
687.918945	85.395309	-6.7538
692.903870	85.297806	-6.0940
697.924927	85.226173	-5.3208
702.982422	85.220200	-4.4760
708.076477	85.249840	-3.6309
713.207520	85.290871	-2.8440
718.375732	85.364670	-2.1970
723.581360	85.511467	-1.8350
728.824707	85.651573	-1.6276
734.106079	85.683243	-1.4929
739.425720	85.710846	-1.4252
744.783936	85.830772	-1.3402
750.180908	85.968513	-1.3915
755.617065	86.084259	-1.7714
761.092529	86.167778	-2.2820
766.607727	86.180450	-2.7990
772.162903	86.168060	-3.2883
777.758301	86.167999	-3.6520
783.394287	86.167999	-3.9609
789.071045	86.167999	-4.2554
794.789001	86.167999	-4.5330
800.548340	86.167999	-4.8043
806.349487	86.167999	-5.0710
812.192627	86.167999	-5.3379
818.078125	86.167999	-5.6071
824.006226	86.167999	-5.8816
829.977295	86.167999	-6.1640
835.991699	86.167999	-6.4568
842.049622	86.167999	-6.7629
848.151428	86.167999	-7.0840
854.297485	86.167999	-7.4257
860.488098	86.167999	-7.7905
866.723572	86.167999	-8.1885
873.004211	86.167999	-8.6183
879.330322	86.167999	-9.1169
885.702332	86.178673	-9.7496
892.120483	86.168098	-10.4305
898.585144	86.093567	-11.1102
905.096680	85.997368	-11.7428
911.655396	85.911377	-12.2400
918.261597	85.825310	-12.6794
924.915710	85.744690	-13.1328
931.618042	85.653366	-13.5327
938.368896	85.519127	-13.7966
945.168762	85.395401	-14.0381
952.017822	85.354561	-14.3422
958.916504	85.309242	-14.7134
965.865234	85.187180	-15.2788
972.864319	85.012749	-15.7556
979.914062	84.754112	-15.8196
987.014954	84.508820	-15.7145
994.167236	84.416527	-15.5868
1001.371399	84.321449	-15.4137
1008.627747	84.082268	-15.3339
1015.936646	83.790298	-15.0082
1023.298584	83.474228	-14.0822
1030.713867	83.183846	-12.7311
1038.182739	82.985718	-10.9587
1045.705933	82.858391	-8.9360
1053.283447	82.798294	-6.7903
1060.916016	82.817734	-4.6569
1068.603882	82.943253	-2.6917
1076.347412	83.129150	-0.9625
1084.147095	83.337433	0.4102
1092.003296	83.570175	1.4282
1099.916382	83.838203	1.9841
1107.886841	84.078125	2.2871
1115.915039	84.191422	2.5151
1124.001343	84.292580	2.6566
1132.146362	84.488457	2.8364
1140.350342	84.707161	2.8217
1148.613770	84.931862	2.3114
1156.937134	85.101463	1.6290
1165.320801	85.108795	0.9737
1173.765137	85.074150	0.4260
1182.270752	85.093483	0.2190
1190.838013	85.136780	0.0935
1199.467285	85.220970	-0.1683
1208.159180	85.298752	-0.4658
1216.913940	85.310753	-0.7938
1225.732178	85.308998	-1.0791
1234.614380	85.324158	-1.1847
1243.560913	85.362785	-1.2954
1252.572266	85.464584	-1.5762
1261.648926	85.560677	-1.9553
1270.791382	85.576378	-2.4514
1280.000000	85.567055	-2.9551
1289.275391	85.567375	-3.3380
1298.618042	85.567001	-3.6736
1308.028320	85.567001	-3.9922
1317.506836	85.567009	-4.2987
1327.054077	85.567001	-4.5986
1336.670410	85.567009	-4.9207
1346.356567	85.577736	-5.3327
1356.112793	85.567108	-5.7247
1365.939697	85.486740	-6.0167
1375.837891	85.395355	-6.1836
1385.807739	85.341423	-6.1306
1395.849854	85.309082	-5.9866
1405.964844	85.303619	-5.8564
1416.152954	85.308975	-5.7225
1426.415039	85.308998	-5.6226
1436.751465	85.308998	-5.4937
1447.162720	85.299759	-5.2659
1457.649414	85.308907	-4.9951
1468.212158	85.364769	-4.6719
1478.851440	85.456581	-4.4237
1489.567871	85.591255	-4.3651
1500.361816	85.743393	-4.5279
1511.234131	85.896263	-5.0031
1522.185059	86.030464	-5.7252
1533.215454	86.128304	-6.7295
1544.325806	86.167976	-7.8033
1555.516602	86.100037	-8.7753
1566.788574	85.989510	-9.5533
1578.142090	85.880814	-9.9444
1589.578003	85.788330	-10.0809
1601.096680	85.734367	-9.9502
1612.698975	85.738831	-9.7974
1624.385254	85.858696	-9.8534
1636.156250	86.005371	-10.1520
1648.012451	86.107590	-10.8900
1659.954590	86.167877	-11.8085
1671.983398	86.150711	-12.7371
1684.099243	86.100235	-13.5987
1696.302856	86.036865	-14.1898
1708.594971	85.997093	-14.7205
1720.976196	86.042839	-15.2790
1733.447144	86.118637	-16.0341
1746.008423	86.207047	-17.2534
1758.660645	86.253944	-18.7314
1771.404663	86.183884	-20.4197
1784.240967	86.042702	-22.1053
1797.170288	85.827080	-23.4326
1810.193359	85.610779	-24.7775
1823.310791	85.564606	-26.6095
1836.523193	85.396149	-28.3051
1849.831421	84.723740	-29.4441
1863.236084	83.977173	-29.8680
1876.737793	83.537605	-29.1060
1890.337524	83.183464	-27.6753
1904.035645	82.768921	-25.9325
1917.833008	82.436058	-23.9075
1931.730469	82.313736	-21.6393
1945.728638	82.301880	-19.4490
1959.828125	82.352058	-17.7154
1974.029907	82.434624	-16.3093
1988.334473	82.505547	-15.2798
2002.742798	82.559830	-14.4631
2017.255493	82.567818	-13.7335
