* Measurement data measured by REW V5.20 Beta 53
* Source: C:\Users\Napie\Music\REW\Top Speakers\New Folder\8-ERDI.txt
* Format: Comma/Tab/Space delimited data
* Dated: May 26, 2020 3:11:15 PM
* REW Settings:
*  C-weighting compensation: Off
*  Target level: 75.0 dB
* Note: ; Measurement imported from C:\Users\Napie\Music\REW\Top Speakers\New Folder\8-ERDI.txt Format: Comma/Tab/Space delimited data 623 values loaded, 5 Hz to 39,792 Hz log spaced 
* Measurement: 8-ERDI
* Smoothing: None
* Frequency Step: 1/96 octave
* Start Frequency: 20.000 Hz
*
* Freq(Hz)	SPL(dB)	Phase(degrees)
20.000000	50.550011	-7.0033
20.144928	50.526077	-6.5778
20.290907	50.525986	-6.1254
20.437943	50.597561	-5.7031
20.586044	50.692932	-5.3792
20.735220	50.779049	-5.2702
20.885475	50.858910	-5.2879
21.036821	50.921741	-5.3861
21.189262	50.975937	-5.5548
21.342808	51.028191	-5.7688
21.497467	51.072952	-6.0277
21.653246	51.103901	-6.3118
21.810154	51.129967	-6.6525
21.968201	51.170895	-7.1082
22.127390	51.188004	-7.5785
22.287735	51.126133	-7.9716
22.449242	51.054050	-8.3187
22.611917	51.047066	-8.6274
22.775772	51.031036	-8.8777
22.940815	50.929390	-9.0523
23.107054	50.824123	-9.1509
23.274498	50.796341	-9.1607
23.443153	50.773041	-9.1031
23.613033	50.683914	-8.9966
23.784142	50.601059	-8.8372
23.956491	50.590244	-8.5908
24.130091	50.600986	-8.3662
24.304947	50.601940	-8.2741
24.481071	50.601006	-8.2749
24.658470	50.608635	-8.4215
24.837156	50.586060	-8.5469
25.017136	50.464218	-8.4816
25.198421	50.344101	-8.2853
25.381020	50.325062	-7.8867
25.564941	50.343971	-7.5103
25.750195	50.383648	-7.4214
25.936790	50.404999	-7.4270
26.124741	50.340790	-7.4339
26.314051	50.258118	-7.4061
26.504732	50.217304	-7.2672
26.696796	50.172066	-7.0443
26.890253	50.084671	-6.7630
27.085112	49.989101	-6.3526
27.281382	49.908157	-5.7523
27.479073	49.838089	-4.9572
27.678198	49.762455	-3.8766
27.878765	49.741970	-2.7067
28.080786	49.861851	-1.5837
28.284271	50.032749	-0.5982
28.489231	50.179665	0.0980
28.695675	50.343754	0.5525
28.903616	50.554375	0.7817
29.113064	50.772694	0.7293
29.324028	50.974190	0.3094
29.536524	51.144821	-0.3741
29.750557	51.266396	-1.3122
29.966141	51.326977	-2.3049
30.183289	51.282261	-3.1354
30.402010	51.211082	-3.8442
30.622314	51.196449	-4.3719
30.844217	51.182030	-4.8025
31.067726	51.129959	-5.2263
31.292856	51.067097	-5.5666
31.519617	51.002834	-5.7397
31.748020	50.952049	-5.8559
31.978081	50.947811	-6.0057
32.209808	50.945015	-6.1658
32.443211	50.896881	-6.3573
32.678310	50.841072	-6.5358
32.915108	50.803608	-6.6333
33.153625	50.773033	-6.7408
33.393871	50.760715	-6.9804
33.635857	50.724087	-7.1927
33.879597	50.591579	-7.2335
34.125103	50.461147	-7.1781
34.372387	50.439823	-7.0302
34.621464	50.430027	-6.8622
34.872345	50.355495	-6.8108
35.125042	50.258129	-6.6872
35.379574	50.143692	-6.3081
35.635948	50.045094	-5.7917
35.894180	50.009212	-5.1691
36.154285	50.000004	-4.5199
36.416275	49.997185	-3.9552
36.680161	49.999996	-3.4128
36.945961	49.999874	-2.8863
37.213688	50.000004	-2.3199
37.483353	49.990379	-1.6385
37.754974	50.001957	-0.8932
38.028561	50.064194	-0.0595
38.304131	50.171829	0.7111
38.581699	50.338924	1.2941
38.861279	50.536686	1.6317
39.142883	50.745945	1.6211
39.426529	50.951736	1.2727
39.712231	51.151566	0.4777
40.000000	51.288864	-0.5075
40.289856	51.272888	-1.4967
40.581814	51.203114	-2.3869
40.875885	51.156693	-2.9632
41.172089	51.111069	-3.3755
41.470440	51.065311	-3.6759
41.770950	51.031040	-3.9445
42.073643	51.042114	-4.3328
42.378525	51.031052	-4.6786
42.685616	50.902195	-4.8595
42.994934	50.773151	-4.9060
43.306492	50.756866	-4.7498
43.620308	50.772964	-4.5662
43.936401	50.772999	-4.5393
44.254780	50.773003	-4.5759
44.575470	50.772999	-4.6365
44.898483	50.772999	-4.7428
45.223835	50.777245	-4.9109
45.551544	50.773014	-5.1187
45.881630	50.747055	-5.3614
46.214108	50.705078	-5.6026
46.548996	50.653782	-5.8440
46.886307	50.577145	-5.9669
47.226067	50.437729	-5.8396
47.568283	50.306190	-5.5027
47.912983	50.245369	-4.8645
48.260181	50.241951	-4.1911
48.609894	50.326466	-3.7359
48.962143	50.429855	-3.4483
49.316940	50.479370	-3.3941
49.674313	50.515942	-3.4748
50.034271	50.563805	-3.6132
50.396843	50.600960	-3.8107
50.762039	50.606319	-4.0437
51.129883	50.601013	-4.3105
51.500389	50.610310	-4.6242
51.873581	50.601044	-4.9165
52.249481	50.528011	-5.1117
52.628101	50.452114	-5.2448
53.009464	50.437073	-5.3027
53.393593	50.430019	-5.3559
53.780506	50.395885	-5.5144
54.170223	50.344105	-5.6468
54.562763	50.257828	-5.6210
54.958145	50.181099	-5.5471
55.356396	50.174809	-5.4841
55.757530	50.172016	-5.4560
56.161572	50.121922	-5.5854
56.568542	50.036171	-5.6361
56.978462	49.880772	-5.3609
57.391350	49.742203	-4.9130
57.807232	49.723618	-4.3162
58.226128	49.741959	-3.7130
58.648056	49.742001	-3.2911
59.073048	49.742004	-2.9385
59.501114	49.742001	-2.6044
59.932281	49.742001	-2.2915
60.366577	49.742001	-1.9880
60.804020	49.742001	-1.6875
61.244629	49.742001	-1.3878
61.688435	49.742001	-1.0656
62.135452	49.734943	-0.6776
62.585712	49.741970	-0.2817
63.039234	49.789345	0.1045
63.496040	49.854885	0.4026
63.956161	49.934433	0.4926
64.419617	49.999908	0.4821
64.886421	50.009068	0.4205
65.356621	50.000023	0.3631
65.830215	50.000000	0.3976
66.307251	50.000000	0.4758
66.787743	49.998814	0.5793
67.271713	49.999996	0.7058
67.759193	50.006672	0.8535
68.250206	50.018974	1.0027
68.744774	50.039837	1.1340
69.242928	50.063957	1.2448
69.744690	50.086521	1.3252
70.250084	50.108959	1.3779
70.759148	50.132580	1.3993
71.271896	50.152966	1.3990
71.788361	50.165234	1.3798
72.308571	50.171993	1.3590
72.832550	50.173187	1.3561
73.360321	50.172009	1.3680
73.891922	50.172001	1.3993
74.427376	50.172001	1.4459
74.966705	50.172001	1.5008
75.509949	50.172005	1.5768
76.057121	50.166630	1.7061
76.608261	50.171974	1.8248
77.163399	50.214905	1.8763
77.722557	50.257927	1.8711
78.285767	50.267502	1.7632
78.853058	50.258038	1.6661
79.424461	50.220951	1.7119
80.000000	50.192036	1.7998
80.579712	50.223240	1.8734
81.163628	50.257950	1.9309
81.751770	50.245605	1.9119
82.344177	50.219063	1.9359
82.940880	50.182369	2.1649
83.541901	50.171978	2.4126
84.147285	50.254883	2.5385
84.757050	50.343857	2.5641
85.371231	50.354759	2.4215
85.989868	50.344032	2.2384
86.612984	50.344002	2.1472
87.240616	50.344002	2.0672
87.872803	50.349373	1.9424
88.509560	50.344032	1.8282
89.150940	50.305653	1.7475
89.796967	50.258099	1.7419
90.447670	50.211643	1.9064
91.103088	50.185020	2.1036
91.763260	50.222225	2.2056
92.428215	50.257961	2.2769
93.097992	50.219662	2.3175
93.772614	50.172085	2.3938
94.452133	50.161251	2.6249
95.136566	50.171955	2.8526
95.825966	50.220276	2.9153
96.520363	50.257954	2.9399
97.219788	50.215103	3.0095
97.924286	50.172066	3.0968
98.633881	50.209526	3.2301
99.348625	50.257915	3.3259
100.068542	50.268749	3.2586
100.793686	50.258053	3.1821
101.524078	50.215115	3.2268
102.259766	50.172089	3.3406
103.000778	50.166622	3.5316
103.747162	50.171986	3.7486
104.498962	50.172001	3.9269
105.256203	50.172005	4.1146
106.018929	50.167004	4.3533
106.787186	50.171974	4.5985
107.561012	50.206177	4.8343
108.340446	50.251923	5.0158
109.125526	50.302925	5.0638
109.916290	50.343948	5.0650
110.712791	50.344383	5.0905
111.515060	50.343987	5.1090
112.323143	50.386906	5.1171
113.137085	50.429924	5.1011
113.956924	50.435379	5.0257
114.782700	50.430019	4.9522
115.614464	50.430000	4.9359
116.452255	50.430000	4.9589
117.296112	50.422882	5.0515
118.146095	50.429962	5.1229
119.002228	50.490414	5.0735
119.864563	50.543900	4.9594
120.733154	50.526260	4.7695
121.608040	50.487087	4.6073
122.489258	50.455006	4.6048
123.376869	50.430042	4.6668
124.270905	50.426437	4.7473
125.171425	50.429993	4.8289
126.078468	50.430000	4.8771
126.992081	50.430000	4.8980
127.912323	50.435371	4.8711
128.839233	50.430027	4.8420
129.772842	50.394772	4.8199
130.713242	50.344112	4.8947
131.660431	50.269596	5.2161
132.614502	50.221066	5.6159
133.575485	50.274654	5.9771
134.543427	50.343887	6.2935
135.518387	50.347763	6.4830
136.500412	50.344002	6.6567
137.489548	50.363308	6.9571
138.485855	50.406860	7.2095
139.489380	50.507706	7.2566
140.500168	50.600838	7.1863
141.518295	50.613140	7.0002
142.543793	50.601044	6.8025
143.576721	50.601002	6.7219
144.617142	50.601002	6.6860
145.665100	50.601002	6.6636
146.720642	50.600998	6.6580
147.783844	50.601002	6.6625
148.854752	50.601002	6.6770
149.933411	50.601002	6.6989
151.019897	50.601006	6.7279
152.114243	50.601002	6.7627
153.216522	50.601002	6.8029
154.326797	50.601002	6.8479
155.445114	50.601002	6.8979
156.571533	50.601002	6.9526
157.706116	50.600998	7.0119
158.848923	50.601002	7.0751
160.000000	50.600998	7.1428
161.159424	50.601002	7.2155
162.327255	50.601002	7.2928
163.503540	50.601002	7.3746
164.688354	50.601006	7.4608
165.881760	50.601002	7.5518
167.083801	50.600998	7.6467
168.294571	50.601002	7.7482
169.514099	50.601006	7.8458
170.742462	50.606373	7.9069
171.979736	50.601040	7.9997
173.225967	50.558113	8.1807
174.481232	50.515079	8.4523
175.745605	50.504250	8.8632
177.019119	50.514950	9.3299
178.301880	50.545895	9.8051
179.593933	50.600830	10.2271
180.895340	50.694950	10.5056
182.206177	50.792778	10.6787
183.526520	50.854683	10.7353
184.856430	50.907883	10.7330
186.195984	50.965797	10.7568
187.545227	51.030830	10.7152
188.904266	51.124466	10.5186
190.273132	51.202847	10.2457
191.651932	51.213760	9.9232
193.040726	51.203037	9.6198
194.439575	51.202999	9.4347
195.848572	51.202999	9.3043
197.267761	51.202999	9.1966
198.697250	51.203003	9.1142
200.137085	51.202999	9.0489
201.587372	51.202995	9.0011
203.048157	51.202999	8.9682
204.519531	51.202999	8.9510
206.001556	51.202999	8.9480
207.494324	51.202999	8.9639
208.997925	51.202999	8.9943
210.512405	51.202999	9.0648
212.037857	51.192257	9.2406
213.574371	51.202930	9.3987
215.122025	51.288765	9.4244
216.680893	51.374805	9.3553
218.251053	51.385761	9.1533
219.832581	51.375042	8.9316
221.425583	51.375000	8.8134
223.030121	51.375004	8.7332
224.646286	51.375000	8.6645
226.274170	51.375000	8.6111
227.913849	51.375000	8.5683
229.565399	51.375000	8.5351
231.228928	51.375000	8.5089
232.904510	51.375000	8.4900
234.592224	51.375000	8.4781
236.292191	51.375000	8.4730
238.004456	51.375000	8.4742
239.729126	51.375000	8.4820
241.466309	51.375000	8.4963
243.216080	51.374996	8.5179
244.978516	51.375000	8.5472
246.753738	51.375004	8.5859
248.541809	51.375000	8.6343
250.342850	51.375000	8.6978
252.156937	51.375000	8.7729
253.984161	51.375000	8.8856
255.824646	51.364323	9.1020
257.678467	51.374928	9.2996
259.545685	51.460266	9.3647
261.426483	51.545826	9.3352
263.320862	51.556698	9.1732
265.229004	51.546040	8.9935
267.150970	51.546001	8.9196
269.086853	51.546001	8.8890
271.036774	51.546001	8.8756
273.000824	51.546001	8.8919
274.979095	51.543503	8.9460
276.971710	51.545979	9.0267
278.978760	51.558697	9.1496
281.000336	51.585903	9.2428
283.036591	51.645321	9.2260
285.087585	51.701855	9.1394
287.153442	51.717232	8.9750
289.234283	51.718010	8.7975
291.330200	51.718998	8.6796
293.441284	51.718002	8.5892
295.567688	51.717999	8.5194
297.709503	51.717999	8.4661
299.866821	51.717999	8.4232
302.039795	51.717995	8.3911
304.228485	51.717999	8.3679
306.433044	51.718002	8.3550
308.653595	51.717999	8.3520
310.890228	51.717995	8.3620
313.143066	51.717999	8.3828
315.412231	51.717999	8.4298
317.697845	51.713253	8.5292
320.000000	51.717964	8.6457
322.318848	51.748692	8.7717
324.654510	51.793842	8.8499
327.007080	51.851879	8.8116
329.376709	51.908836	8.6825
331.763519	51.949585	8.4469
334.167603	51.975945	8.1609
336.589142	51.980194	7.8829
339.028198	51.976017	7.5909
341.484924	51.984493	7.2630
343.959473	51.976067	6.9558
346.451935	51.915443	6.7010
348.962463	51.840210	6.5512
351.491211	51.774044	6.6068
354.038239	51.724110	6.7565
356.603760	51.713753	6.9305
359.187866	51.717976	7.1025
361.790680	51.717625	7.2105
364.412354	51.717999	7.2918
367.053040	51.717999	7.3635
369.712860	51.717999	7.4258
372.391968	51.717999	7.4845
375.090454	51.717999	7.5398
377.808533	51.717999	7.5940
380.546265	51.717999	7.6478
383.303864	51.717999	7.7027
386.081451	51.717999	7.7588
388.879150	51.717999	7.8164
391.697144	51.717999	7.8768
394.535522	51.717999	7.9410
397.394501	51.717999	8.0098
400.274170	51.717999	8.0837
403.174744	51.717999	8.1647
406.096313	51.717999	8.2533
409.039062	51.717999	8.3547
412.003113	51.717999	8.4677
414.988647	51.717999	8.6115
417.995850	51.712132	8.8188
421.024811	51.717945	9.0473
424.075714	51.754597	9.2974
427.148743	51.811787	9.4726
430.244049	51.899601	9.4438
433.361786	51.975811	9.3086
436.502106	51.986263	9.0981
439.665161	51.976044	8.8856
442.851166	51.976002	8.7749
446.060242	51.976002	8.7052
449.292572	51.976002	8.6486
452.548340	51.976002	8.6081
455.827698	51.976002	8.5777
459.130798	51.976002	8.5571
462.457855	51.976002	8.5440
465.809021	51.976002	8.5380
469.184448	51.976002	8.5380
472.584381	51.976002	8.5440
476.008911	51.976002	8.5556
479.458252	51.976002	8.5729
482.932617	51.976002	8.5960
486.432159	51.976002	8.6249
489.957031	51.976002	8.6592
493.507477	51.976002	8.6999
497.083618	51.976002	8.7472
500.685699	51.976002	8.8028
504.313873	51.976002	8.8672
507.968323	51.976002	8.9437
511.649292	51.976002	9.0309
515.356934	51.976002	9.1446
519.091370	51.970634	9.3166
522.852966	51.975956	9.4984
526.641724	52.013474	9.6658
530.458008	52.061836	9.7768
534.301941	52.110226	9.7553
538.173706	52.147903	9.6783
542.073547	52.153381	9.5895
546.001648	52.148022	9.5142
549.958191	52.147999	9.5010
553.943420	52.147999	9.5229
557.957520	52.147999	9.5625
562.000671	52.147999	9.6377
566.073181	52.142632	9.7770
570.175171	52.147953	9.9315
574.306885	52.185474	10.0753
578.468567	52.233829	10.1668
582.660400	52.282223	10.1300
586.882568	52.319901	10.0414
591.135376	52.325382	9.9434
595.419006	52.320023	9.8632
599.733643	52.320000	9.8496
604.079590	52.319996	9.8788
608.456970	52.318752	9.9423
612.866089	52.319988	10.0426
617.307190	52.325905	10.1841
621.780457	52.339939	10.3524
626.286133	52.362896	10.5642
630.824463	52.404819	10.7306
635.395691	52.493313	10.7446
640.000000	52.576756	10.6754
644.637695	52.595284	10.5365
649.309021	52.599976	10.3895
654.014160	52.627453	10.3326
658.753418	52.662868	10.2703
663.527039	52.709785	10.1198
668.335205	52.748898	9.9376
673.178284	52.754383	9.7410
678.056396	52.749023	9.5665
682.969849	52.749001	9.4609
687.918945	52.749001	9.4111
692.903870	52.741947	9.4430
697.924927	52.748932	9.4859
702.982422	52.801605	9.4835
708.076477	52.861794	9.4174
713.207520	52.898460	9.2213
718.375732	52.920948	8.9829
723.581360	52.924694	8.7697
728.824707	52.921021	8.5776
734.106079	52.921001	8.4312
739.425720	52.921001	8.3104
744.783936	52.921001	8.2025
750.180908	52.921001	8.1093
755.617065	52.921001	8.0276
761.092529	52.920998	7.9592
766.607727	52.921001	7.9027
772.162903	52.921001	7.8641
777.758301	52.919628	7.8501
783.394287	52.920990	7.8569
789.071045	52.928772	7.8855
794.789001	52.942932	7.9288
800.548340	52.959724	8.0094
806.349487	52.993839	8.0401
812.192627	53.075886	7.9269
818.078125	53.154755	7.7109
824.006226	53.177029	7.3735
829.977295	53.179012	7.0013
835.991699	53.180504	6.6996
842.049622	53.179005	6.3961
848.151428	53.189739	6.0178
854.297485	53.179104	5.6692
860.488098	53.098713	5.4226
866.723572	53.007317	5.3042
873.004211	52.953407	5.4061
879.330322	52.921078	5.6022
885.702332	52.914993	5.7897
892.120483	52.920967	5.9873
898.585144	52.921234	6.1775
905.096680	52.930935	6.3673
911.655396	52.958736	6.5866
918.261597	53.006783	6.7496
924.915710	53.092045	6.7672
931.618042	53.178707	6.6775
938.368896	53.227222	6.4712
945.168762	53.264866	6.2031
952.017822	53.307899	5.9399
958.916504	53.350834	5.6373
965.865234	53.394215	5.2804
972.864319	53.435848	4.8448
979.914062	53.481663	4.2802
987.014954	53.507961	3.6485
994.167236	53.486507	2.9645
1001.371399	53.436222	2.3201
1008.627747	53.356701	1.8518
1015.936646	53.278297	1.4417
1023.298584	53.255959	0.9848
1030.713867	53.216202	0.5752
1038.182739	53.072472	0.2620
1045.705933	52.916622	0.0775
1053.283447	52.829014	0.1179
1060.916016	52.760277	0.2414
1068.603882	52.690746	0.2862
1076.347412	52.609379	0.4033
1084.147095	52.476929	0.7153
1092.003296	52.358334	1.1513
1099.916382	52.323364	1.7181
1107.886841	52.319981	2.3017
1115.915039	52.317623	2.7614
1124.001343	52.319988	3.1825
1132.146362	52.315132	3.6134
1140.350342	52.319950	4.0275
1148.613770	52.354206	4.4124
1156.937134	52.397808	4.7715
1165.320801	52.424534	5.1374
1173.765137	52.471710	5.4111
1182.270752	52.595451	5.4875
1190.838013	52.714588	5.4146
1199.467285	52.747135	5.1588
1208.159180	52.749023	4.8621
1216.913940	52.751129	4.6791
1225.732178	52.749008	4.5414
1234.614380	52.749001	4.4340
1243.560913	52.749001	4.3483
1252.572266	52.749001	4.2709
1261.648926	52.749001	4.2013
1270.791382	52.749001	4.1348
1280.000000	52.749001	4.0703
1289.275391	52.749001	4.0058
1298.618042	52.749001	3.9393
1308.028320	52.749001	3.8691
1317.506836	52.749001	3.7914
1327.054077	52.749001	3.7072
1336.670410	52.749001	3.6005
1346.356567	52.754368	3.4393
1356.112793	52.749050	3.2716
1365.939697	52.711552	3.1212
1375.837891	52.663204	3.0302
1385.807739	52.614803	3.0741
1395.849854	52.577110	3.1765
1405.964844	52.571617	3.2943
1416.152954	52.576973	3.4017
1426.415039	52.577000	3.4491
1436.751465	52.577000	3.4650
1447.162720	52.577000	3.4648
1457.649414	52.577000	3.4392
1468.212158	52.577312	3.3919
1478.851440	52.577003	3.2985
1489.567871	52.584930	3.1016
1500.361816	52.572109	2.9027
1511.234131	52.493870	2.7830
1522.185059	52.405373	2.7479
1533.215454	52.357620	2.8574
1544.325806	52.320156	3.0282
1555.516602	52.279552	3.1719
1566.788574	52.234211	3.3611
1578.142090	52.170456	3.6401
1589.578003	52.111217	4.0082
1601.096680	52.072983	4.5158
1612.698975	52.061977	5.0528
1624.385254	52.099033	5.5396
1636.156250	52.156723	5.9325
1648.012451	52.217194	6.1420
1659.954590	52.271820	6.2259
1671.983398	52.308468	6.1778
1684.099243	52.320011	6.1042
1696.302856	52.282764	6.1105
1708.594971	52.234211	6.1954
1720.976196	52.211029	6.4025
1733.447144	52.193081	6.7015
1746.008423	52.162674	7.0906
1758.660645	52.148003	7.5261
1771.404663	52.182686	7.9732
1784.240967	52.233780	8.4033
1797.170288	52.271770	8.7731
1810.193359	52.318783	9.0919
1823.310791	52.391933	9.3771
1836.523193	52.477646	9.5625
1849.831421	52.577217	9.5571
1863.236084	52.662670	9.4506
1876.737793	52.694408	9.2883
1890.337524	52.707958	9.1157
1904.035645	52.731228	9.0018
1917.833008	52.748947	8.9213
1931.730469	52.751568	8.8648
1945.728638	52.749016	8.8510
1959.828125	52.749001	8.8932
1974.029907	52.749001	8.9974
1988.334473	52.743633	9.1845
2002.742798	52.748943	9.4229
2017.255493	52.783386	9.6990
2031.873291	52.834763	9.9799
2046.597168	52.890095	10.2627
2061.427734	52.969578	10.4445
2076.365479	53.115543	10.3819
2091.411865	53.249535	10.1910
2106.566895	53.276085	9.9255
2121.832031	53.285927	9.6342
2137.207764	53.357559	9.4194
2152.694824	53.435707	9.1741
2168.294189	53.488190	8.7873
2184.006592	53.521889	8.3699
2199.832764	53.527382	7.9923
2215.773682	53.522026	7.6692
2231.830078	53.516632	7.4652
2248.002686	53.521938	7.2997
2264.292725	53.559433	7.1273
2280.700684	53.607788	6.9042
2297.227539	53.656185	6.5477
2313.874268	53.693882	6.1278
2330.641602	53.699383	5.6857
2347.530273	53.694031	5.2270
2364.541504	53.699368	4.7667
2381.676025	53.694065	4.3180
2398.934570	53.656582	3.8904
2416.318359	53.608223	3.5106
2433.827881	53.565186	3.2178
