* Measurement data measured by REW V5.20 Beta 53
* Source: C:\Users\Napie\Music\REW\Top Speakers\New Folder\7-DI.txt
* Format: Comma/Tab/Space delimited data
* Dated: May 26, 2020 3:08:07 PM
* REW Settings:
*  C-weighting compensation: Off
*  Target level: 75.0 dB
* Note: ; Measurement imported from C:\Users\Napie\Music\REW\Top Speakers\New Folder\7-DI.txt Format: Comma/Tab/Space delimited data 623 values loaded, 5 Hz to 39,792 Hz log spaced 
* Measurement: 7-DI
* Smoothing: None
* Frequency Step: 1/96 octave
* Start Frequency: 20.000 Hz
*
* Freq(Hz)	SPL(dB)	Phase(degrees)
20.000000	48.787933	56.0563
20.144928	48.855438	55.7046
20.290907	48.922939	55.3773
20.437943	48.982204	55.1230
20.586044	49.057934	54.8622
20.735220	49.185383	54.5436
20.885475	49.324844	54.1306
21.036821	49.446606	53.5414
21.189262	49.555874	52.8599
21.342808	49.646023	52.1340
21.497467	49.722912	51.3909
21.653246	49.786358	50.6847
21.810154	49.847912	49.9829
21.968201	49.923031	49.2834
22.127390	49.999916	48.5498
22.287735	50.076935	47.7215
22.449242	50.138958	46.8687
22.611917	50.163673	46.0152
22.775772	50.171001	45.2399
22.940815	50.159004	44.6899
23.107054	50.170956	44.1847
23.274498	50.280769	43.5801
23.443153	50.394863	42.9120
23.613033	50.419365	42.1293
23.784142	50.427994	41.3486
23.956491	50.469452	40.7081
24.130091	50.525928	40.0927
24.304947	50.596905	39.4281
24.481071	50.678886	38.7299
24.658470	50.755814	38.0470
24.837156	50.864815	37.2063
25.017136	51.070179	36.0472
25.198421	51.274815	34.5807
25.381020	51.384605	32.7384
25.564941	51.453949	30.5992
25.750195	51.533943	28.1768
25.936790	51.541061	25.5983
26.124741	51.389042	22.9095
26.314051	51.136433	20.3675
26.504732	50.806488	18.2353
26.696796	50.419502	16.5428
26.890253	49.984505	15.4707
27.085112	49.558472	14.8285
27.281382	49.233826	14.4664
27.479073	48.913452	14.4418
27.678198	48.494789	14.7276
27.878765	48.085552	15.4297
28.080786	47.749660	16.8047
28.284271	47.517231	18.3748
28.489231	47.497540	19.7077
28.695675	47.516994	20.9194
28.903616	47.388699	21.9360
29.113064	47.260147	22.8976
29.324028	47.254612	23.9185
29.536524	47.260010	25.0037
29.750557	47.158550	26.2092
29.966141	47.089035	27.4965
30.183289	47.179901	28.9456
30.402010	47.345760	30.2565
30.622314	47.554417	31.1088
30.844217	47.773735	31.6415
31.067726	47.955452	31.8437
31.292856	48.115776	31.8471
31.519617	48.244267	31.8141
31.748020	48.372833	31.6423
31.978081	48.555027	31.2579
32.209808	48.715820	30.7368
32.443211	48.778198	30.0708
32.678310	48.800980	29.4388
32.915108	48.801865	29.1030
33.153625	48.827934	28.8064
33.393871	48.965847	28.3901
33.635857	49.114788	27.8190
33.879597	49.189854	26.9443
34.125103	49.228966	25.9494
34.372387	49.239941	24.9777
34.621464	49.229031	24.0035
34.872345	49.205791	23.0598
35.125042	49.168056	22.1122
35.379574	49.125626	21.1084
35.635948	49.052109	20.1341
35.894180	48.910587	19.2513
36.154285	48.742256	18.4800
36.416275	48.593056	17.8174
36.680161	48.412323	17.3944
36.945961	48.122692	17.3794
37.213688	47.849358	17.6594
37.483353	47.723324	18.2569
37.754974	47.651093	18.9330
38.028561	47.587776	19.3780
38.304131	47.517105	19.8244
38.581699	47.380314	20.4332
38.861279	47.260143	21.1119
39.142883	47.253365	21.8146
39.426529	47.260002	22.5610
39.712231	47.175182	23.3586
40.000000	47.109058	24.1977
40.289856	47.165447	25.1149
40.581814	47.259857	25.9789
40.875885	47.328701	26.6592
41.172089	47.411854	27.1893
41.470440	47.542904	27.5670
41.770950	47.677792	27.7698
42.073643	47.785477	27.7066
42.378525	47.859924	27.5802
42.685616	47.855389	27.6176
42.994934	47.859962	27.6580
43.306492	47.987797	27.6171
43.620308	48.115841	27.4903
43.936401	48.132008	27.1798
44.254780	48.116039	26.8814
44.575470	48.105255	26.8354
44.898483	48.115955	26.8131
45.223835	48.201862	26.6625
45.551544	48.287895	26.3905
45.881630	48.309502	25.8892
46.214108	48.288067	25.3518
46.548996	48.219326	24.9098
46.886307	48.116184	24.6412
47.226067	47.977539	24.6779
47.568283	47.841213	24.9892
47.912983	47.736694	25.6751
48.260181	47.688023	26.4756
48.609894	47.762535	27.1433
48.962143	47.859867	27.7382
49.316940	47.870491	28.2249
49.674313	47.887943	28.6444
50.034271	47.992817	29.0575
50.396843	48.115818	29.3696
50.762039	48.205425	29.4857
51.129883	48.287857	29.4671
51.500389	48.384094	29.3208
51.873581	48.458900	29.1154
52.249481	48.469692	28.9018
52.628101	48.459023	28.7402
53.009464	48.459000	28.7202
53.393593	48.459000	28.8038
53.780506	48.452316	28.9965
54.170223	48.458969	29.2565
54.562763	48.503036	29.5592
54.958145	48.565887	29.8585
55.356396	48.636936	30.0876
55.757530	48.715866	30.2847
56.161572	48.788681	30.5086
56.568542	48.885807	30.6319
56.978462	49.058186	30.5425
57.391350	49.230705	30.2527
57.807232	49.337410	29.6701
58.226128	49.400932	28.9982
58.648056	49.411633	28.4161
59.073048	49.401024	27.9068
59.501114	49.401001	27.5318
59.932281	49.401001	27.2325
60.366577	49.401001	26.9697
60.804020	49.401005	26.7464
61.244629	49.401001	26.5522
61.688435	49.401001	26.3883
62.135452	49.401001	26.2505
62.585712	49.401001	26.1432
63.039234	49.401001	26.0612
63.496040	49.401001	26.0290
63.956161	49.391945	26.0987
64.419617	49.400959	26.1829
64.886421	49.466366	26.2272
65.356621	49.545860	26.1842
65.830215	49.610954	25.9474
66.307251	49.657932	25.6386
66.787743	49.665005	25.3370
67.271713	49.658016	25.0654
67.759193	49.658001	24.8793
68.250206	49.658001	24.7602
68.744774	49.649445	24.7382
69.242928	49.657963	24.7221
69.744690	49.724243	24.6284
70.250084	49.794880	24.4624
70.759148	49.820530	24.1689
71.271896	49.828995	23.8456
71.788361	49.831123	23.5822
72.308571	49.829002	23.3484
72.832550	49.828999	23.1472
73.360321	49.829002	22.9683
73.891922	49.828999	22.8025
74.427376	49.828999	22.6493
74.966705	49.828999	22.5049
75.509949	49.829002	22.3692
76.057121	49.828999	22.2412
76.608261	49.828999	22.1202
77.163399	49.828999	22.0054
77.722557	49.828999	21.8972
78.285767	49.828999	21.7961
78.853058	49.828999	21.7012
79.424461	49.828999	21.6114
80.000000	49.828999	21.5272
80.579712	49.828999	21.4486
81.163628	49.828999	21.3761
81.751770	49.828999	21.3101
82.344177	49.828995	21.2511
82.940880	49.828999	21.1995
83.541901	49.828999	21.1571
84.147285	49.828999	21.1239
84.757050	49.828999	21.1050
85.371231	49.828999	21.0970
85.989868	49.828995	21.1259
86.612984	49.818317	21.2574
87.240616	49.828941	21.3689
87.872803	49.914318	21.3463
88.509560	49.999855	21.2273
89.150940	50.010696	20.9739
89.796967	50.000031	20.6995
90.447670	50.000000	20.5276
91.103088	50.000000	20.3923
91.763260	50.000000	20.2674
92.428215	50.000004	20.1562
93.097992	50.000000	20.0535
93.772614	50.000000	19.9592
94.452133	50.000000	19.8717
95.136566	50.000004	19.7902
95.825966	50.000000	19.7133
96.520363	50.000000	19.6411
97.219788	50.000000	19.5736
97.924286	50.000004	19.5101
98.633881	50.000000	19.4497
99.348625	50.000004	19.3931
100.068542	50.000000	19.3408
100.793686	50.000000	19.2921
101.524078	50.000000	19.2464
102.259766	49.999996	19.2041
103.000778	50.000000	19.1654
103.747162	50.000000	19.1301
104.498962	50.000000	19.0977
105.256203	50.000000	19.0690
106.018929	50.000000	19.0449
106.787186	50.000000	19.0250
107.561012	50.000000	19.0095
108.340446	50.000000	18.9990
109.125526	50.000000	18.9936
109.916290	50.000004	18.9950
110.712791	50.000000	19.0032
111.515060	49.999996	19.0239
112.323143	50.000000	19.0524
113.137085	50.000000	19.1198
113.956924	49.983944	19.3298
114.782700	49.999893	19.4609
115.614464	50.144241	19.2438
116.452255	50.256882	18.9216
117.296112	50.144844	18.6093
118.146095	50.000263	18.4272
119.002228	49.983925	18.6108
119.864563	49.999943	18.9291
120.733154	49.983952	19.2593
121.608040	49.999908	19.5076
122.489258	50.133556	19.5012
123.376869	50.256783	19.3545
124.270905	50.229980	19.0717
125.171425	50.171101	18.8124
126.078468	50.161938	18.8135
126.992081	50.173954	18.8490
127.912323	50.220966	18.7307
128.839233	50.256962	18.5773
129.772842	50.219284	18.4343
130.713242	50.171085	18.3351
131.660431	50.165623	18.3581
132.614502	50.170982	18.4148
133.575485	50.171001	18.4313
134.543427	50.171001	18.4420
135.518387	50.171001	18.4566
136.500412	50.171001	18.4760
137.489548	50.171001	18.5008
138.485855	50.171001	18.5409
139.489380	50.166443	18.6243
140.500168	50.170975	18.6969
141.518295	50.207653	18.7105
142.543793	50.243923	18.6742
143.576721	50.250877	18.5486
144.617142	50.240044	18.4312
145.665100	50.205341	18.4206
146.720642	50.171074	18.4748
147.783844	50.166687	18.5965
148.854752	50.170986	18.7496
149.933411	50.171001	18.8774
151.019897	50.171001	19.0435
152.114243	50.154949	19.3564
153.216522	50.170883	19.6264
154.326797	50.299152	19.6880
155.445114	50.427757	19.5745
156.571533	50.454632	19.1656
157.706116	50.428112	18.7578
158.848923	50.343712	18.6448
160.000000	50.259163	18.7176
161.159424	50.237873	19.0398
162.327255	50.258904	19.3833
163.503540	50.343300	19.5059
164.688354	50.427849	19.5101
165.881760	50.438576	19.3820
167.083801	50.428040	19.2314
168.294571	50.428001	19.1835
169.514099	50.428005	19.1790
170.742462	50.428001	19.1901
171.979736	50.428001	19.2448
173.225967	50.417324	19.4033
174.481232	50.427933	19.5418
175.745605	50.513290	19.5448
177.019119	50.598827	19.4454
178.301880	50.609695	19.2062
179.593933	50.599037	18.9237
180.895340	50.605244	18.6835
182.206177	50.599037	18.4814
183.526520	50.553558	18.3309
184.856430	50.499123	18.2630
186.195984	50.457336	18.3412
187.545227	50.428051	18.4826
188.904266	50.423561	18.6286
190.273132	50.427986	18.7697
191.651932	50.428001	18.8693
193.040726	50.428001	18.9498
194.439575	50.428001	19.0250
195.848572	50.428001	19.0849
197.267761	50.429562	19.1264
198.697250	50.428013	19.1420
200.137085	50.424644	19.0974
201.587372	50.403080	19.0700
203.048157	50.339329	19.1011
204.519531	50.257252	19.2653
206.001556	50.167980	19.6558
207.494324	50.086170	20.2583
208.997925	50.017551	21.1544
210.512405	49.999954	22.1476
212.037857	50.100197	23.0697
213.574371	50.237652	23.9141
215.122025	50.324619	24.6575
216.680893	50.447578	25.1840
218.251053	50.713093	25.3558
219.832581	50.975327	25.2139
221.425583	51.096073	24.6591
223.030121	51.155903	23.9748
224.646286	51.188702	23.4355
226.274170	51.198997	22.9731
227.913849	51.201691	22.6198
229.565399	51.199009	22.3446
231.228928	51.199001	22.1318
232.904510	51.199001	21.9674
234.592224	51.199001	21.8324
236.292191	51.199001	21.7262
238.004456	51.199001	21.6424
239.729126	51.199001	21.5801
241.466309	51.199001	21.5367
243.216080	51.199001	21.5120
244.978516	51.199001	21.5046
246.753738	51.199001	21.5159
248.541809	51.199001	21.5452
250.342850	51.199001	21.5978
252.156937	51.199001	21.6702
253.984161	51.199001	21.7886
255.824646	51.188324	22.0188
257.678467	51.198929	22.2395
259.545685	51.284264	22.3374
261.426483	51.369820	22.3531
263.320862	51.380695	22.2491
265.229004	51.370037	22.1472
267.150970	51.369999	22.1656
269.086853	51.369999	22.2785
271.036774	51.353951	22.5589
273.000824	51.369873	22.8283
274.979095	51.498089	22.9113
276.971710	51.626690	22.8693
278.978760	51.643074	22.6408
281.000336	51.627056	22.4214
283.036591	51.616318	22.4607
285.087585	51.626911	22.5388
287.153442	51.712227	22.5026
289.234283	51.797806	22.3964
291.330200	51.808701	22.1745
293.441284	51.798038	21.9555
295.567688	51.797253	21.8618
297.709503	51.797997	21.8380
299.866821	51.796803	21.8922
302.039795	51.809929	21.9539
304.228485	51.865322	21.9543
306.433044	51.924850	21.8953
308.653595	51.954124	21.7286
310.890228	51.968971	21.5355
313.143066	51.971756	21.3866
315.412231	51.969013	21.2673
317.697845	51.969002	21.1909
320.000000	51.969002	21.1441
322.318848	51.969002	21.1170
324.654510	51.969002	21.1130
327.007080	51.969002	21.1296
329.376709	51.969002	21.1738
331.763519	51.969002	21.2411
334.167603	51.969002	21.3635
336.589142	51.956703	21.6147
339.028198	51.968906	21.8663
341.484924	52.063454	22.0090
343.959473	52.165749	22.0570
346.451935	52.202866	21.9588
348.962463	52.225937	21.8045
351.491211	52.270752	21.6770
354.038239	52.311893	21.5474
356.603760	52.328899	21.4080
359.187866	52.341957	21.2764
361.790680	52.365921	21.1871
364.412354	52.396896	21.0814
367.053040	52.441120	20.9117
369.712860	52.482891	20.6778
372.391968	52.513378	20.3208
375.090454	52.518036	19.9699
377.808533	52.459873	19.7483
380.546265	52.397156	19.6182
383.303864	52.389431	19.6182
386.081451	52.396965	19.6410
388.879150	52.402306	19.5607
391.697144	52.397041	19.4693
394.535522	52.364437	19.3745
397.394501	52.312180	19.4046
400.274170	52.213326	19.7788
403.174744	52.155060	20.2346
406.096313	52.265766	20.5852
409.039062	52.396645	20.8175
412.003113	52.412140	20.7781
414.988647	52.397064	20.7022
417.995850	52.391628	20.8219
421.024811	52.396954	20.9984
424.075714	52.434544	21.1756
427.148743	52.482841	21.3326
430.244049	52.525368	21.4200
433.361786	52.567867	21.4669
436.502106	52.610806	21.4909
439.665161	52.653866	21.4781
442.851166	52.702240	21.3996
446.060242	52.739914	21.3172
449.292572	52.740074	21.2894
452.548340	52.739983	21.2979
455.827698	52.776993	21.3618
459.130798	52.824844	21.4268
462.457855	52.867363	21.4330
465.809021	52.910862	21.4151
469.184448	52.952484	21.4123
472.584381	53.003819	21.3523
476.008911	53.091541	21.1526
479.458252	53.167809	20.8809
482.932617	53.178261	20.5520
486.432159	53.168041	20.2439
489.957031	53.167999	20.0532
493.507477	53.167999	19.9402
497.083618	53.159447	19.9274
500.685699	53.167923	19.9241
504.313873	53.234142	19.8451
507.968323	53.304810	19.6946
511.649292	53.330513	19.4162
515.356934	53.338993	19.1070
519.091370	53.341129	18.8567
522.852966	53.339008	18.6327
526.641724	53.339001	18.4384
530.458008	53.339001	18.2536
534.301941	53.341999	18.0523
538.173706	53.339027	17.8547
542.073547	53.322330	17.6439
546.001648	53.291134	17.5053
549.958191	53.225338	17.5536
553.943420	53.175106	17.6845
557.957520	53.203289	17.8561
562.000671	53.252827	17.9937
566.073181	53.282223	17.9810
570.175171	53.305931	17.9003
574.306885	53.325756	17.7933
578.468567	53.338970	17.6684
582.660400	53.341064	17.5480
586.882568	53.339008	17.4314
591.135376	53.339001	17.3374
595.419006	53.339001	17.2304
599.733643	53.349678	17.0381
604.079590	53.339100	16.8884
608.456970	53.253819	16.8925
612.866089	53.168240	17.0303
617.307190	53.151993	17.3702
621.780457	53.167904	17.7558
626.286133	53.204979	18.0362
630.824463	53.252834	18.2604
635.395691	53.290485	18.4443
640.000000	53.338802	18.5379
644.637695	53.429562	18.4753
649.309021	53.509781	18.3187
654.014160	53.520699	18.0807
658.753418	53.510048	17.8447
663.527039	53.509998	17.7191
668.335205	53.509998	17.6422
673.178284	53.509998	17.5857
678.056396	53.509998	17.5561
682.969849	53.509998	17.5454
687.918945	53.509998	17.5688
692.903870	53.504631	17.6555
697.924927	53.509949	17.7567
702.982422	53.547466	17.8468
708.076477	53.595821	17.8840
713.207520	53.644215	17.7928
718.375732	53.681896	17.6486
723.581360	53.687382	17.4932
728.824707	53.682026	17.3534
734.106079	53.681999	17.2783
739.425720	53.681999	17.2421
744.783936	53.681999	17.2255
750.180908	53.681999	17.2578
755.617065	53.671326	17.3992
761.092529	53.681896	17.5386
766.607727	53.761856	17.5924
772.162903	53.852695	17.5354
777.758301	53.906036	17.2719
783.394287	53.937923	16.9302
789.071045	53.943317	16.6132
794.789001	53.938026	16.3051
800.548340	53.938000	16.0421
806.349487	53.937996	15.7690
812.192627	53.946114	15.4175
818.078125	53.938076	15.0622
824.006226	53.876431	14.7687
829.977295	53.808216	14.4979
835.991699	53.786636	14.2432
842.049622	53.757156	13.9711
848.151428	53.682789	13.5794
854.297485	53.562546	13.2659
860.488098	53.372219	13.1531
866.723572	53.144886	13.3684
873.004211	52.884991	14.1427
879.330322	52.654724	15.2893
885.702332	52.549728	16.6723
892.120483	52.475266	18.3644
898.585144	52.322559	20.3710
905.096680	52.226158	22.7604
911.655396	52.258224	25.8945
918.261597	52.500610	28.9018
924.915710	53.159512	31.0853
931.618042	53.935131	32.2649
938.368896	54.590416	31.7881
945.168762	55.136211	30.3806
952.017822	55.481388	28.4780
958.916504	55.698372	26.3164
965.865234	55.825615	24.2758
972.864319	55.875931	22.3558
979.914062	55.865551	20.6999
987.014954	55.822189	19.2511
994.167236	55.786461	18.0029
1001.371399	55.736210	16.9444
1008.627747	55.650852	16.0702
1015.936646	55.565327	15.3577
1023.298584	55.511475	14.8260
1030.713867	55.479073	14.3456
1038.182739	55.478924	13.7859
1045.705933	55.479031	13.1668
1053.283447	55.448933	12.4366
1060.916016	55.394291	11.6812
1068.603882	55.310974	10.9515
1076.347412	55.198524	10.3034
1084.147095	55.053020	9.7819
1092.003296	54.880627	9.4706
1099.916382	54.674164	9.4742
1107.886841	54.469810	9.7751
1115.915039	54.300289	10.4306
1124.001343	54.169392	11.3214
1132.146362	54.096745	12.3500
1140.350342	54.067039	13.5054
1148.613770	54.055119	14.7938
1156.937134	54.109589	16.0678
1165.320801	54.283363	17.2873
1173.765137	54.539703	18.1344
1182.270752	54.907925	18.1655
1190.838013	55.241844	17.7117
1199.467285	55.355366	16.8715
1208.159180	55.393913	15.9117
1216.913940	55.453297	15.1933
1225.732178	55.501842	14.5343
1234.614380	55.540131	13.8614
1243.560913	55.564934	13.2015
1252.572266	55.574310	12.5371
1261.648926	55.565079	11.9303
1270.791382	55.522186	11.4522
1280.000000	55.479141	11.0584
1289.275391	55.473618	10.7483
1298.618042	55.478970	10.4602
1308.028320	55.479000	10.1269
1317.506836	55.479000	9.7636
1327.054077	55.482868	9.3603
1336.670410	55.479046	8.9277
1346.356567	55.460236	8.4347
1356.112793	55.417213	7.9964
1365.939697	55.321903	7.7220
1375.837891	55.223370	7.6012
1385.807739	55.163872	7.7136
1395.849854	55.137039	7.8973
1405.964844	55.163105	8.0040
1416.152954	55.203850	8.0679
1426.415039	55.213146	8.0822
1436.751465	55.233871	8.0234
1447.162720	55.310230	7.8777
1457.649414	55.393688	7.6084
1468.212158	55.446331	7.1382
1478.851440	55.478912	6.5743
1489.567871	55.484318	6.0081
1500.361816	55.479027	5.4124
1511.234131	55.484306	4.7929
1522.185059	55.479061	4.1400
1533.215454	55.448692	3.4219
1544.325806	55.394299	2.7101
1555.516602	55.307858	2.0620
1566.788574	55.202477	1.4892
1578.142090	55.093933	1.0014
1589.578003	54.966591	0.6611
1601.096680	54.796547	0.5231
1612.698975	54.623692	0.6210
1624.385254	54.473629	1.0547
1636.156250	54.366348	1.6809
1648.012451	54.328522	2.4775
1659.954590	54.365711	3.1788
1671.983398	54.522671	3.5193
1684.099243	54.708248	3.4731
1696.302856	54.846367	2.8549
1708.594971	54.934746	1.8801
1720.976196	54.955040	0.5966
1733.447144	54.880577	-0.6738
1746.008423	54.635826	-1.5962
1758.660645	54.348179	-2.1575
1771.404663	54.129688	-2.1300
1784.240967	53.954613	-1.8276
1797.170288	53.848167	-1.4931
1810.193359	53.767300	-1.1205
1823.310791	53.672680	-0.8201
1836.523193	53.577374	-0.4805
1849.831421	53.468052	0.0165
1863.236084	53.385269	0.5447
1876.737793	53.383930	1.0457
1890.337524	53.408875	1.4307
1904.035645	53.424019	1.5588
1917.833008	53.425041	1.5264
1931.730469	53.400799	1.3331
1945.728638	53.336384	1.1327
1959.828125	53.189133	1.1179
1974.029907	53.030643	1.1737
1988.334473	52.974049	1.1142
2002.742798	52.854748	1.3372
2017.255493	52.443386	2.1718
2031.873291	52.041367	3.6486
2046.597168	51.900253	6.1707
2061.427734	51.949348	8.9469
2076.365479	52.205605	11.5288
2091.411865	52.652756	13.2743
2106.566895	53.412437	13.1569
2121.832031	54.088741	11.8744
2137.207764	54.217525	9.4973
2152.694824	54.114700	6.9048
2168.294189	53.945164	5.1211
2184.006592	53.711166	3.7951
2199.832764	53.474903	2.9172
