* Measurement data measured by REW V5.20 Beta 53
* Source: C:\Users\Napie\Music\REW\Top Speakers\New Folder\7-LW.txt
* Format: Comma/Tab/Space delimited data
* Dated: May 26, 2020 3:06:32 PM
* REW Settings:
*  C-weighting compensation: Off
*  Target level: 75.0 dB
* Note: ; Measurement imported from C:\Users\Napie\Music\REW\Top Speakers\New Folder\7-LW.txt Format: Comma/Tab/Space delimited data 623 values loaded, 5 Hz to 39,792 Hz log spaced 
* Measurement: 7-LW
* Smoothing: None
* Frequency Step: 1/96 octave
* Start Frequency: 20.000 Hz
*
* Freq(Hz)	SPL(dB)	Phase(degrees)
20.000000	56.314819	-140.8566
20.144928	56.501823	-141.2834
20.290907	56.688831	-141.7126
20.437943	56.875919	-142.1414
20.586044	57.062870	-142.5697
20.735220	57.249344	-142.9969
20.885475	57.435783	-143.4215
21.036821	57.625835	-143.8704
21.189262	57.809780	-144.2586
21.342808	57.953812	-144.4399
21.497467	58.133736	-144.6237
21.653246	58.457432	-144.9733
21.810154	58.795574	-145.4822
21.968201	59.022865	-146.2298
22.127390	59.233768	-147.1220
22.287735	59.509624	-148.0982
22.449242	59.765816	-149.1362
22.611917	59.919121	-150.2277
22.775772	60.045849	-151.2698
22.940815	60.201355	-152.1190
23.107054	60.365780	-152.8870
23.274498	60.533070	-153.6160
23.443153	60.716736	-154.3719
23.613033	60.943558	-155.2549
23.784142	61.167816	-156.2051
23.956491	61.332096	-157.1806
24.130091	61.497799	-158.2267
24.304947	61.736958	-159.4075
24.481071	61.960735	-160.6264
24.658470	62.058556	-161.7761
24.837156	62.166805	-162.9533
25.017136	62.424595	-164.1323
25.198421	62.714706	-165.5743
25.381020	62.976524	-167.6281
25.564941	63.177853	-170.0066
25.750195	63.253475	-172.5987
25.936790	63.242065	-175.2238
26.124741	63.157101	-177.6619
26.314051	63.009251	-179.9199
26.504732	62.825668	177.9906
26.696796	62.570366	176.3027
26.890253	62.165607	175.2971
27.085112	61.763428	174.8223
27.281382	61.529499	174.8920
27.479073	61.346233	175.2883
27.678198	61.133789	175.7679
27.878765	60.943249	176.4189
28.080786	60.807106	177.2706
28.284271	60.702129	178.2585
28.489231	60.611107	179.3425
28.695675	60.548065	-179.5206
28.903616	60.540565	-178.4374
29.113064	60.531033	-177.2568
29.324028	60.439243	-175.8839
29.536524	60.360069	-174.2551
29.750557	60.358582	-172.1643
29.966141	60.444847	-169.9445
30.183289	60.673172	-167.8241
30.402010	60.975594	-165.9132
30.622314	61.306015	-164.4350
30.844217	61.652576	-163.2782
31.067726	61.991787	-162.4536
31.292856	62.312538	-161.8169
31.519617	62.583012	-161.2578
31.748020	62.841679	-160.6848
31.978081	63.091412	-159.8350
32.209808	63.407509	-159.1117
32.443211	63.936008	-158.8661
32.678310	64.468346	-158.9946
32.915108	64.794197	-159.6047
33.153625	65.062683	-160.4119
33.393871	65.374634	-161.1430
33.635857	65.666580	-161.8699
33.879597	65.886368	-162.5721
34.125103	66.099701	-163.2561
34.372387	66.363716	-163.8518
34.621464	66.652534	-164.5677
34.872345	66.979805	-165.6256
35.125042	67.283661	-166.9183
35.379574	67.497284	-168.4742
35.635948	67.648857	-170.1071
35.894180	67.741722	-171.6608
36.154285	67.783974	-173.0721
36.416275	67.773788	-174.2121
36.680161	67.744049	-175.1208
36.945961	67.736137	-175.7956
37.213688	67.723030	-176.2355
37.483353	67.677444	-176.4379
37.754974	67.641037	-176.4052
38.028561	67.644539	-176.0692
38.304131	67.693901	-175.6386
38.581699	67.833847	-175.3443
38.861279	67.978790	-175.0535
39.142883	68.023567	-174.7277
39.426529	68.070915	-174.3126
39.712231	68.201408	-173.6611
40.000000	68.377716	-173.0129
40.289856	68.610092	-172.6276
40.581814	68.835701	-172.3005
40.875885	68.959328	-171.9172
41.172089	69.087769	-171.4637
41.470440	69.314285	-170.8311
41.770950	69.585526	-170.1900
42.073643	69.867340	-169.6336
42.378525	70.194489	-169.2873
42.685616	70.625198	-169.3310
42.994934	71.055420	-169.6943
43.306492	71.379196	-170.4268
43.620308	71.659599	-171.3465
43.936401	71.933464	-172.2992
44.254780	72.174652	-173.2505
44.575470	72.350487	-174.1028
44.898483	72.516724	-174.8928
45.223835	72.733604	-175.6033
45.551544	72.955681	-176.2990
45.881630	73.151093	-177.0589
46.214108	73.338707	-177.8228
46.548996	73.523521	-178.5256
46.886307	73.715691	-179.2598
47.226067	73.945015	179.8726
47.568283	74.157669	178.9636
47.912983	74.290863	178.0336
48.260181	74.400826	177.1963
48.609894	74.509804	176.6770
48.962143	74.657722	176.1609
49.316940	74.945595	175.3354
49.674313	75.212631	174.4145
50.034271	75.267639	173.4865
50.396843	75.300919	172.6192
50.762039	75.479805	171.9904
51.129883	75.684639	171.3592
51.500389	75.841988	170.4941
51.873581	75.978783	169.5417
52.249481	76.107170	168.5294
52.628101	76.198883	167.5865
53.009464	76.202072	166.8798
53.393593	76.198982	166.3258
53.780506	76.291031	165.8698
54.170223	76.369919	165.5903
54.562763	76.326103	165.4778
54.958145	76.263092	165.7422
55.356396	76.242615	166.6167
55.757530	76.281868	168.0222
56.161572	76.358490	170.2477
56.568542	76.652267	172.4218
56.978462	77.461327	173.8665
57.391350	78.410240	174.2834
57.807232	79.204720	172.9167
58.226128	79.894928	170.4609
58.648056	80.450966	167.1772
59.073048	80.821564	163.6198
59.501114	80.868721	160.4325
59.932281	80.822083	157.6106
60.366577	80.891098	155.5423
60.804020	81.000786	153.6902
61.244629	81.177452	151.5723
61.688435	81.324799	149.4037
62.135452	81.328621	147.1527
62.585712	81.268143	145.0833
63.039234	81.170113	143.5137
63.496040	81.079124	142.2519
63.956161	81.062683	141.2560
64.419617	81.078949	140.3905
64.886421	81.108757	139.4974
65.356621	81.150925	138.6016
65.830215	81.201782	137.6620
66.307251	81.249916	136.7198
66.787743	81.276459	135.8001
67.271713	81.299957	134.9116
67.759193	81.335808	134.0796
68.250206	81.374939	133.2784
68.744774	81.412933	132.4867
69.242928	81.450928	131.7163
69.744690	81.488434	130.9722
70.250084	81.525932	130.2544
70.759148	81.563934	129.5618
71.271896	81.601929	128.9012
71.788361	81.639427	128.2692
72.308571	81.676933	127.6950
72.832550	81.702873	127.2523
73.360321	81.752869	126.8049
73.891922	81.887360	126.2226
74.427376	82.020782	125.5603
74.966705	82.063515	124.7950
75.509949	82.086952	124.0323
76.057121	82.141327	123.4010
76.608261	82.201881	122.8102
77.163399	82.259323	122.2036
77.722557	82.316887	121.6042
78.285767	82.374886	121.0170
78.853058	82.432884	120.4401
79.424461	82.490448	119.8733
80.000000	82.547890	119.3171
80.579712	82.605392	118.7716
81.163628	82.662895	118.2380
81.751770	82.720383	117.7167
82.344177	82.777878	117.2100
82.940880	82.835388	116.7196
83.541901	82.892883	116.2469
84.147285	82.950394	115.7925
84.757050	83.007896	115.3608
85.371231	83.065384	114.9532
85.989868	83.122887	114.5797
86.612984	83.180389	114.2380
87.240616	83.237885	113.9664
87.872803	83.284508	113.8289
88.509560	83.352821	113.7471
89.150940	83.480888	113.7045
89.796967	83.641647	113.5784
90.447670	83.832603	113.2042
91.103088	84.017639	112.6912
91.763260	84.146957	112.0671
92.428215	84.258781	111.4143
93.097992	84.374458	110.8491
93.772614	84.495750	110.2971
94.452133	84.635651	109.7269
95.136566	84.781700	109.1243
95.825966	84.924698	108.4589
96.520363	85.067703	107.7476
97.219788	85.210701	106.9982
97.924286	85.353706	106.2076
98.633881	85.496651	105.3767
99.348625	85.639717	104.5018
100.068542	85.783188	103.5825
100.793686	85.926651	102.6094
101.524078	86.069695	101.5808
102.259766	86.212646	100.4728
103.000778	86.359177	99.2668
103.747162	86.498741	97.9456
104.498962	86.631660	96.4389
105.256203	86.728867	94.8868
106.018929	86.741257	93.3966
106.787186	86.729027	91.9985
107.561012	86.741783	90.8007
108.340446	86.762955	89.6778
109.125526	86.794388	88.5595
109.916290	86.829933	87.3872
110.712791	86.888794	85.9816
111.515060	86.897072	84.6336
112.323143	86.732056	83.5890
113.137085	86.558296	82.8073
113.956924	86.532043	82.4246
114.782700	86.557899	82.1547
115.614464	86.590164	81.7228
116.452255	86.633911	81.2279
117.296112	86.678909	80.6740
118.146095	86.725906	80.0752
119.002228	86.771889	79.4455
119.864563	86.817879	78.7907
120.733154	86.863831	78.1218
121.608040	86.909904	77.4375
122.489258	86.956390	76.7407
123.376869	87.002884	76.0307
124.270905	87.048965	75.3081
125.171425	87.094917	74.5723
126.078468	87.140846	73.8236
126.992081	87.186905	73.0596
127.912323	87.233398	72.2799
128.839233	87.279907	71.4796
129.772842	87.325974	70.6592
130.713242	87.371910	69.8017
131.660431	87.421387	68.8875
132.614502	87.463890	67.9247
133.575485	87.491951	66.8919
134.543427	87.500000	65.8579
135.518387	87.474747	64.8676
136.500412	87.432083	63.9725
137.489548	87.376373	63.2643
138.485855	87.329102	62.6674
139.489380	87.322563	62.1417
140.500168	87.328995	61.6720
141.518295	87.318321	61.2545
142.543793	87.328926	60.8142
143.576721	87.410965	60.2722
144.617142	87.499825	59.6355
145.665100	87.532074	58.8655
146.720642	87.552940	58.0213
147.783844	87.601074	57.1335
148.854752	87.633949	56.2482
149.933411	87.599609	55.4321
151.019897	87.564064	54.6558
152.114243	87.593895	53.9430
153.216522	87.636887	53.2012
154.326797	87.658524	52.3272
155.445114	87.670982	51.3752
156.571533	87.681992	50.3457
157.706116	87.671059	49.2974
158.848923	87.612724	48.2646
160.000000	87.529221	47.3201
161.159424	87.432434	46.5396
162.327255	87.328239	45.9491
163.503540	87.204865	45.6884
164.688354	87.127090	45.4915
165.881760	87.205078	45.1174
167.083801	87.291824	44.6265
168.294571	87.240868	43.9283
169.514099	87.158203	43.2355
170.742462	87.106728	42.7901
171.979736	87.072067	42.4170
173.225967	87.065994	42.0232
174.481232	87.071983	41.6010
175.745605	87.072243	41.1333
177.019119	87.081963	40.5565
178.301880	87.135635	39.7438
179.593933	87.158020	38.8672
180.895340	87.049316	38.0385
182.206177	86.916298	37.3145
183.526520	86.847450	36.8545
184.856430	86.800095	36.4619
186.195984	86.768013	35.9599
187.545227	86.729111	35.4452
188.904266	86.647087	34.9543
190.273132	86.558212	34.4941
191.651932	86.497910	34.0826
193.040726	86.433205	33.7229
194.439575	86.333305	33.4048
195.848572	86.226295	33.1854
197.267761	86.124367	33.1625
198.697250	86.045143	33.2058
200.137085	86.025024	33.2303
201.587372	86.020012	33.1962
203.048157	86.000450	32.9869
204.519531	85.959160	32.7487
206.001556	85.870644	32.5579
207.494324	85.760284	32.5099
208.997925	85.633232	32.7559
210.512405	85.525208	33.2047
212.037857	85.478058	33.8622
213.574371	85.478935	34.5872
215.122025	85.531929	35.2639
216.680893	85.627678	35.8217
218.251053	85.763954	36.1689
219.832581	85.923523	36.2532
221.425583	86.106895	35.9284
223.030121	86.258690	35.3846
224.646286	86.298477	34.7276
226.274170	86.301010	34.0676
227.913849	86.314774	33.6154
229.565399	86.339912	33.1751
231.228928	86.414108	32.5897
232.904510	86.472893	31.9510
234.592224	86.443825	31.2614
236.292191	86.387154	30.6345
238.004456	86.338745	30.2283
239.729126	86.301079	29.9128
241.466309	86.295624	29.6228
243.216080	86.300987	29.3178
244.978516	86.306313	28.9138
246.753738	86.301048	28.4773
248.541809	86.268875	28.0144
250.342850	86.216179	27.6229
252.156937	86.129356	27.4291
253.984161	86.052155	27.3551
255.824646	86.032944	27.4149
257.678467	86.044945	27.4570
259.545685	86.092247	27.2891
261.426483	86.129936	27.0457
263.320862	86.092934	26.7878
265.229004	86.045120	26.5476
267.150970	86.041489	26.4049
269.086853	86.044991	26.2764
271.036774	86.039284	26.0521
273.000824	86.016106	25.8893
274.979095	85.933846	25.9644
276.971710	85.876083	26.1135
278.978760	85.951485	26.2322
281.000336	86.044777	26.3138
283.036591	86.039581	26.3239
285.087585	86.044914	26.2434
287.153442	86.172585	26.0458
289.234283	86.300713	25.7200
291.330200	86.317017	25.1885
293.441284	86.301064	24.6245
295.567688	86.301003	24.2090
297.709503	86.301003	23.8450
299.866821	86.301003	23.4899
302.039795	86.301003	23.1570
304.228485	86.295631	22.8707
306.433044	86.300964	22.5560
308.653595	86.345940	22.1440
310.890228	86.386909	21.6385
313.143066	86.390419	20.9534
315.412231	86.354156	20.2897
317.697845	86.241096	19.8389
320.000000	86.122307	19.5476
322.318848	86.069115	19.4814
324.654510	86.045044	19.4720
327.007080	86.043434	19.3555
329.376709	86.044991	19.1806
331.763519	86.026573	18.9176
334.167603	85.993134	18.6418
336.589142	85.940620	18.3976
339.028198	85.873215	18.2482
341.484924	85.780258	18.3022
343.959473	85.702179	18.4684
346.451935	85.691246	18.7048
348.962463	85.701965	18.9692
351.491211	85.691887	19.2249
354.038239	85.702919	19.4146
356.603760	85.787788	19.4556
359.187866	85.872787	19.3873
361.790680	85.883263	19.1802
364.412354	85.873039	18.9606
367.053040	85.868813	18.8933
369.712860	85.878937	18.8362
372.391968	85.933510	18.7074
375.090454	85.993843	18.4878
377.808533	86.031982	18.0868
380.546265	86.045006	17.6383
383.303864	86.010689	17.2366
386.081451	85.959160	16.9118
388.879150	85.910751	16.7568
391.697144	85.873093	16.6772
394.535522	85.867622	16.6185
397.394501	85.872978	16.5522
400.274170	85.873001	16.4309
403.174744	85.873009	16.2576
406.096313	85.883675	15.9828
409.039062	85.873093	15.7167
412.003113	85.793167	15.5438
414.988647	85.702278	15.4929
417.995850	85.648445	15.6592
421.024811	85.616066	15.9291
424.075714	85.605247	16.2287
427.148743	85.615929	16.5321
430.244049	85.648170	16.8129
433.361786	85.701797	16.9987
436.502106	85.792587	16.9756
439.665161	85.872803	16.8395
442.851166	85.883698	16.6199
446.060242	85.873047	16.4036
449.292572	85.873001	16.3013
452.548340	85.873001	16.2720
455.827698	85.867630	16.3163
459.130798	85.872955	16.4176
462.457855	85.899620	16.6117
465.809021	85.958748	16.7428
469.184448	86.088821	16.6483
472.584381	86.218636	16.3831
476.008911	86.276131	15.8959
479.458252	86.300964	15.3438
482.932617	86.306129	14.8824
486.432159	86.301025	14.4683
489.957031	86.301003	14.1176
493.507477	86.301003	13.8030
497.083618	86.301003	13.5022
500.685699	86.301003	13.2159
504.313873	86.301003	12.9381
507.968323	86.301003	12.6669
511.649292	86.301003	12.3993
515.356934	86.301003	12.1328
519.091370	86.301003	11.8658
522.852966	86.301003	11.5929
526.641724	86.302124	11.3075
530.458008	86.301010	11.0110
534.301941	86.296219	10.6884
538.173706	86.283066	10.3829
542.073547	86.248505	10.1426
546.001648	86.216095	9.9396
549.958191	86.211815	9.7737
553.943420	86.215988	9.6096
557.957520	86.212692	9.4209
562.000671	86.215973	9.1799
566.073181	86.245590	8.8455
570.175171	86.268944	8.4315
574.306885	86.257706	7.8936
578.468567	86.218185	7.3657
582.660400	86.128632	7.0214
586.882568	86.045227	6.7002
591.135376	86.060951	6.2334
595.419006	86.045189	5.8132
599.733643	85.836586	5.5781
604.079590	85.616669	5.5259
608.456970	85.562859	5.7356
612.866089	85.531143	6.0996
617.307190	85.392273	6.5403
621.780457	85.274284	7.0433
626.286133	85.306137	7.5796
630.824463	85.359863	8.1163
635.395691	85.312988	8.5865
640.000000	85.274055	9.0623
644.637695	85.327667	9.6731
649.309021	85.426605	10.1816
654.014160	85.565636	10.3553
658.753418	85.701591	10.3035
663.527039	85.779732	10.0223
668.335205	85.828873	9.6235
673.178284	85.858871	9.2350
678.056396	85.872971	8.8046
682.969849	85.894669	8.2542
687.918945	85.873192	7.7853
692.903870	85.724503	7.5867
697.924927	85.570450	7.6224
702.982422	85.525871	8.0062
708.076477	85.530914	8.4763
713.207520	85.570145	8.7827
718.375732	85.622818	8.9994
723.581360	85.658447	9.1024
728.824707	85.690887	9.1410
734.106079	85.724442	9.1606
739.425720	85.757881	9.1490
744.783936	85.791382	9.1094
750.180908	85.824875	9.0403
755.617065	85.858376	8.9432
761.092529	85.891876	8.8126
766.607727	85.925377	8.6477
772.162903	85.958878	8.4349
777.758301	85.992386	8.1790
783.394287	86.025887	7.8235
789.071045	86.077301	7.2629
794.789001	86.093048	6.6472
800.548340	85.999542	6.0776
806.349487	85.873451	5.5964
812.192627	85.791122	5.2524
818.078125	85.682472	5.1250
824.006226	85.463493	5.3169
829.977295	85.249657	5.8087
835.991699	85.146683	6.7027
842.049622	85.103065	7.7362
848.151428	85.110970	8.6556
854.297485	85.142860	9.5308
860.488098	85.160736	10.3361
866.723572	85.187874	11.1091
873.004211	85.236420	11.9115
879.330322	85.302719	12.6486
885.702332	85.414818	13.1432
892.120483	85.489861	13.7007
898.585144	85.407936	14.4644
905.096680	85.306313	15.7479
911.655396	85.201050	18.3589
918.261597	85.338799	20.9664
924.915710	86.195030	22.3622
931.618042	87.105019	22.9513
938.368896	87.341187	22.6885
945.168762	87.548889	21.7417
952.017822	88.333717	20.3818
958.916504	89.110420	18.2578
965.865234	89.403931	14.7446
972.864319	89.469093	10.9219
979.914062	89.389938	7.7356
987.014954	89.215752	4.9904
994.167236	89.019867	2.8734
1001.371399	88.812721	1.1665
1008.627747	88.654785	-0.3500
1015.936646	88.468910	-1.4901
1023.298584	88.143730	-2.1146
1030.713867	87.839836	-2.2952
1038.182739	87.706589	-1.9269
1045.705933	87.670959	-1.4052
1053.283447	87.716728	-1.0807
1060.916016	87.820450	-0.9888
1068.603882	87.962227	-1.2819
1076.347412	88.115387	-1.9554
1084.147095	88.259277	-3.1036
1092.003296	88.355797	-4.5815
1099.916382	88.363228	-6.3819
1107.886841	88.271614	-8.1829
1115.915039	88.030739	-9.7140
1124.001343	87.719208	-10.8101
1132.146362	87.377174	-11.1230
1140.350342	87.072014	-10.9326
1148.613770	86.903061	-10.3248
1156.937134	86.815224	-9.5385
1165.320801	86.785309	-8.8209
1173.765137	86.814751	-8.2341
1182.270752	86.911438	-7.9196
1190.838013	87.033493	-7.8835
1199.467285	87.141899	-8.2084
1208.159180	87.234680	-8.8052
1216.913940	87.300949	-9.6428
1225.732178	87.328979	-10.6282
1234.614380	87.297073	-11.6711
1243.560913	87.224335	-12.7321
1252.572266	87.139679	-13.8320
1261.648926	86.992775	-14.7012
1270.791382	86.679855	-15.0052
1280.000000	86.387962	-14.9528
1289.275391	86.322571	-14.5396
1298.618042	86.329910	-14.0787
1308.028320	86.312004	-13.9376
1317.506836	86.301033	-13.9546
1327.054077	86.303055	-14.0839
1336.670410	86.301033	-14.3358
1346.356567	86.287605	-14.7661
1356.112793	86.239273	-15.1946
1365.939697	86.101082	-15.4377
1375.837891	85.959518	-15.5568
1385.807739	85.906975	-15.5227
1395.849854	85.873146	-15.4254
1405.964844	85.803772	-15.3618
1416.152954	85.740196	-15.2833
1426.415039	85.712753	-15.1532
1436.751465	85.702019	-15.0294
1447.162720	85.695129	-14.9523
1457.649414	85.701942	-14.9399
1468.212158	85.731667	-15.0044
1478.851440	85.773827	-15.2029
1489.567871	85.827797	-15.6016
1500.361816	85.872864	-16.1863
1511.234131	85.895241	-17.0178
1522.185059	85.873230	-17.9379
1533.215454	85.765030	-18.8298
1544.325806	85.616699	-19.6278
1555.516602	85.463936	-20.2113
1566.788574	85.297729	-20.6266
1578.142090	85.121834	-20.9049
1589.578003	84.932823	-20.9733
1601.096680	84.714401	-20.7606
1612.698975	84.508789	-20.2886
1624.385254	84.351570	-19.5026
1636.156250	84.247330	-18.5604
1648.012451	84.214638	-17.5499
1659.954590	84.246758	-16.6281
1671.983398	84.353615	-15.9445
1684.099243	84.503304	-15.6095
1696.302856	84.690277	-15.8424
1708.594971	84.845451	-16.4674
1720.976196	84.889687	-17.4926
1733.447144	84.846390	-18.5804
1746.008423	84.685608	-19.3867
1758.660645	84.489815	-19.9324
1771.404663	84.331955	-20.0292
1784.240967	84.212387	-19.9653
1797.170288	84.176453	-19.9528
1810.193359	84.161064	-20.0394
1823.310791	84.125084	-20.4320
1836.523193	84.046432	-20.8644
1849.831421	83.862984	-21.1552
1863.236084	83.653931	-21.2491
1876.737793	83.478844	-20.9622
1890.337524	83.336517	-20.5002
1904.035645	83.255386	-19.9972
1917.833008	83.205162	-19.4929
1931.730469	83.156158	-19.0392
1945.728638	83.134018	-18.7309
1959.828125	83.176598	-18.6494
1974.029907	83.218887	-18.8872
1988.334473	83.251465	-19.8112
2002.742798	83.143860	-20.6812
