* Measurement data measured by REW V5.20 Beta 53
* Source: C:\Users\Napie\Music\REW\Top Speakers\New Folder\7-On Axis.txt
* Format: Comma/Tab/Space delimited data
* Dated: May 26, 2020 3:05:33 PM
* REW Settings:
*  C-weighting compensation: Off
*  Target level: 75.0 dB
* Note: ; Measurement imported from C:\Users\Napie\Music\REW\Top Speakers\New Folder\7-On Axis.txt Format: Comma/Tab/Space delimited data 623 values loaded, 5 Hz to 39,792 Hz log spaced 
* Measurement: 7-On Axis
* Smoothing: None
* Frequency Step: 1/96 octave
* Start Frequency: 20.000 Hz
*
* Freq(Hz)	SPL(dB)	Phase(degrees)
20.000000	56.120720	-79.7329
20.144928	56.409733	-81.9470
20.290907	56.698742	-84.5455
20.437943	57.062817	-87.9664
20.586044	57.276936	-91.5745
20.735220	57.042240	-95.0230
20.885475	56.654480	-97.8822
21.036821	56.320713	-99.4455
21.189262	56.009365	-100.1965
21.342808	55.779640	-100.4560
21.497467	55.565266	-100.0110
21.653246	55.259853	-98.7528
21.810154	55.042179	-96.6863
21.968201	55.012806	-93.3114
22.127390	55.301456	-90.0332
22.287735	56.290203	-88.3464
22.449242	57.323269	-87.4934
22.611917	57.616707	-87.2229
22.775772	57.932442	-87.4994
22.940815	58.983257	-87.9495
23.107054	60.138531	-89.3363
23.274498	60.943199	-92.6757
23.443153	61.576244	-96.8420
23.613033	62.015503	-100.8521
23.784142	62.412640	-105.2819
23.956491	63.045425	-110.5697
24.130091	63.514641	-116.1545
24.304947	63.356087	-121.7243
24.481071	63.039421	-126.9674
24.658470	62.972214	-131.3443
24.837156	62.881187	-135.2269
25.017136	62.560860	-138.8528
25.198421	62.211334	-142.0899
25.381020	61.987675	-144.7073
25.564941	61.822132	-147.2365
25.750195	61.752159	-150.2614
25.936790	61.616261	-153.3980
26.124741	61.219215	-156.6266
26.314051	60.698822	-159.4364
26.504732	60.079147	-161.1018
26.696796	59.507626	-162.2448
26.890253	59.231400	-163.2493
27.085112	58.976341	-164.1131
27.281382	58.474537	-164.9793
27.479073	57.951679	-165.7939
27.678198	57.644459	-166.6680
27.878765	57.254692	-167.2495
28.080786	56.435234	-167.2558
28.284271	55.566151	-166.5865
28.489231	55.002792	-164.9556
28.695675	54.476761	-162.6376
28.903616	53.786816	-159.9640
29.113064	53.082977	-156.4807
29.324028	52.432545	-151.7831
29.536524	51.884571	-146.0494
29.750557	51.485527	-139.2027
29.966141	51.310047	-131.6069
30.183289	51.420532	-123.2314
30.402010	51.900135	-115.1836
30.622314	52.997978	-108.5724
30.844217	54.279427	-103.3674
31.067726	55.332767	-100.1509
31.292856	56.334503	-98.1882
31.519617	57.327511	-96.8481
31.748020	58.303814	-96.3980
31.978081	59.331482	-97.1128
32.209808	60.224960	-98.3442
32.443211	60.690189	-99.4645
32.678310	61.119362	-100.6823
32.915108	61.913036	-101.8104
33.153625	62.755978	-103.4126
33.393871	63.452225	-106.1463
33.635857	64.040184	-109.5463
33.879597	64.514030	-113.4974
34.125103	64.811745	-117.6015
34.372387	64.829231	-121.5233
34.621464	64.686302	-124.9583
34.872345	64.454674	-127.4456
35.125042	64.175354	-129.1185
35.379574	63.910988	-129.9409
35.635948	63.668266	-129.9635
35.894180	63.436245	-129.0726
36.154285	63.330029	-127.7232
36.416275	63.513035	-126.2034
36.680161	63.830444	-124.9017
36.945961	64.211807	-124.4791
37.213688	64.565536	-124.4070
37.483353	64.713257	-124.3833
37.754974	64.844765	-124.3820
38.028561	65.125809	-124.1580
38.304131	65.452560	-124.0679
38.581699	65.800598	-124.5285
38.861279	66.095619	-125.1191
39.142883	66.198013	-125.5558
39.426529	66.278862	-125.8408
39.712231	66.495476	-125.7907
40.000000	66.751602	-125.6791
40.289856	67.006264	-125.7975
40.581814	67.249680	-125.9119
40.875885	67.425491	-125.8222
41.172089	67.632637	-125.7151
41.470440	67.992325	-125.6701
41.770950	68.382370	-125.8106
42.073643	68.714638	-126.3761
42.378525	69.006622	-127.0989
42.685616	69.243706	-127.8551
42.994934	69.434753	-128.4494
43.306492	69.543022	-128.5568
43.620308	69.690712	-128.4423
43.936401	70.028534	-128.1778
44.254780	70.435333	-128.0191
44.575470	70.842094	-128.3271
44.898483	71.241379	-128.8590
45.223835	71.585617	-129.4850
45.551544	71.926498	-130.2229
45.881630	72.317596	-131.0643
46.214108	72.706406	-131.9586
46.548996	73.011566	-132.7168
46.886307	73.372353	-133.7451
47.226067	74.007469	-135.4668
47.568283	74.599152	-137.6450
47.912983	74.822693	-140.3709
48.260181	74.913902	-143.0797
48.609894	75.006622	-145.1449
48.962143	75.085876	-146.8377
49.316940	75.168159	-148.1446
49.674313	75.291756	-149.2982
50.034271	75.531464	-150.5095
50.396843	75.794601	-151.8308
50.762039	76.004173	-153.4348
51.129883	76.186699	-155.1709
51.500389	76.350548	-156.9869
51.873581	76.473824	-158.7600
52.249481	76.509331	-160.3080
52.628101	76.540916	-161.7556
53.009464	76.676392	-163.1746
53.393593	76.797829	-164.5447
53.780506	76.801735	-165.9837
54.170223	76.751114	-167.1484
54.562763	76.638977	-167.6446
54.958145	76.573029	-167.7401
55.356396	76.670105	-167.3563
55.757530	76.896523	-167.1420
56.161572	77.362740	-167.9950
56.568542	77.752525	-169.0952
56.978462	77.610580	-169.8838
57.391350	77.461113	-170.4622
57.807232	77.810539	-170.5331
58.226128	78.264221	-170.7373
58.648056	78.555374	-171.7927
59.073048	78.799637	-173.1786
59.501114	79.034264	-174.6252
59.932281	79.230698	-176.0894
60.366577	79.349632	-177.4292
60.804020	79.459793	-178.6740
61.244629	79.624809	-179.7325
61.688435	79.821640	179.1750
62.135452	80.067879	177.8278
62.585712	80.304619	176.3167
63.039234	80.466576	174.6111
63.496040	80.589821	172.8569
63.956161	80.686600	171.1973
64.419617	80.763878	169.6118
64.886421	80.831200	168.1350
65.356621	80.892891	166.7434
65.830215	80.957321	165.4311
66.307251	81.021881	164.1783
66.787743	81.086884	162.9644
67.271713	81.151886	161.7881
67.759193	81.216385	160.6420
68.250206	81.280884	159.5240
68.744774	81.345886	158.4295
69.242928	81.410896	157.3588
69.744690	81.475388	156.3120
70.250084	81.539879	155.2850
70.759148	81.604874	154.2731
71.271896	81.669884	153.2768
71.788361	81.734375	152.2951
72.308571	81.798882	151.3268
72.832550	81.863876	150.3705
73.360321	81.928879	149.4267
73.891922	81.993439	148.4967
74.427376	82.057877	147.5777
74.966705	82.122314	146.6676
75.509949	82.186882	145.7657
76.057121	82.251877	144.8709
76.608261	82.316872	143.9828
77.163399	82.381378	143.1004
77.722557	82.445869	142.2238
78.285767	82.510864	141.3539
78.853058	82.575867	140.4867
79.424461	82.640381	139.6195
80.000000	82.704880	138.7487
80.579712	82.769882	137.8745
81.163628	82.834877	136.9827
81.751770	82.902237	136.0573
82.344177	82.963875	135.1030
82.940880	83.014908	134.1002
83.541901	83.047958	133.1060
84.147285	83.050201	132.1541
84.757050	83.033043	131.2955
85.371231	83.001320	130.5881
85.989868	82.962074	130.0459
86.612984	82.922394	129.6827
87.240616	82.887062	129.5580
87.872803	82.833237	129.8484
88.509560	82.850845	130.2163
89.150940	83.081703	130.3851
89.796967	83.348480	130.3444
90.447670	83.489189	129.8936
91.103088	83.596802	129.3282
91.763260	83.709396	128.9214
92.428215	83.831741	128.5437
93.097992	83.982491	128.1981
93.772614	84.157631	127.7560
94.452133	84.389175	126.9897
95.136566	84.587669	126.1995
95.825966	84.601974	125.6904
96.520363	84.647789	125.2260
97.219788	84.965622	124.7570
97.924286	85.333275	124.0239
98.633881	85.593803	122.5913
99.348625	85.787689	120.9363
100.068542	85.874733	119.4320
100.793686	85.941818	117.9635
101.524078	86.089355	116.5705
102.259766	86.237656	115.1585
103.000778	86.330521	113.6031
103.747162	86.395897	112.0340
104.498962	86.444305	110.5239
105.256203	86.472969	109.1215
106.018929	86.461823	107.9594
106.787186	86.472931	106.8581
107.561012	86.590004	105.7327
108.340446	86.728790	104.4303
109.125526	86.852280	102.6302
109.916290	86.901016	100.7493
110.712791	86.756668	99.0555
111.515060	86.558411	97.6794
112.323143	86.408333	96.9470
113.137085	86.301170	96.5396
113.956924	86.279991	96.2531
114.782700	86.300919	96.0644
115.614464	86.313248	95.9399
116.452255	86.379799	95.7086
117.296112	86.585945	95.2104
118.146095	86.814560	94.3781
119.002228	86.981064	92.9450
119.864563	87.071884	91.3492
120.733154	87.002800	89.9526
121.608040	86.901199	88.7234
122.489258	86.890305	87.8159
123.376869	86.900970	87.0298
124.270905	86.900879	86.1886
125.171425	86.901001	85.3734
126.078468	86.895508	84.6371
126.992081	86.902962	83.8907
127.912323	86.961632	83.0211
128.839233	87.006950	82.1527
129.772842	86.949951	81.3992
130.713242	86.901047	80.6814
131.660431	86.977333	79.9984
132.614502	87.071762	79.2274
133.575485	87.110756	78.1551
134.543427	87.109055	77.0490
135.518387	87.037834	76.1186
136.500412	86.955139	75.3303
137.489548	86.918427	74.7571
138.485855	86.901024	74.2870
139.489380	86.893127	73.8357
140.500168	86.900970	73.3930
141.518295	86.930725	72.9281
142.543793	86.972878	72.4184
143.576721	87.021004	71.8277
144.617142	87.071892	71.1655
145.665100	87.120255	70.4357
146.720642	87.165886	69.6193
147.783844	87.220940	68.6376
148.854752	87.243004	67.6724
149.933411	87.156113	66.9085
151.019897	87.072151	66.2605
152.114243	87.108719	65.7585
153.216522	87.174812	65.2365
154.326797	87.213669	64.4862
155.445114	87.237968	63.6619
156.571533	87.236206	62.8496
157.706116	87.225029	62.0508
158.848923	87.219009	61.3045
160.000000	87.213013	60.5827
161.159424	87.206512	59.8706
162.327255	87.200012	59.1676
163.503540	87.194016	58.4695
164.688354	87.188019	57.7735
165.881760	87.181519	57.0797
167.083801	87.175018	56.3759
168.294571	87.173897	55.6307
169.514099	87.163055	54.9007
170.742462	87.116875	54.2399
171.979736	87.072098	53.6246
173.225967	87.065681	53.0691
174.481232	87.071983	52.5113
175.745605	87.072243	51.9135
177.019119	87.081963	51.2158
178.301880	87.135635	50.2885
179.593933	87.158020	49.3035
180.895340	87.049316	48.3720
182.206177	86.916298	47.5498
183.526520	86.847450	46.9950
184.856430	86.800095	46.5111
186.195984	86.768013	45.9212
187.545227	86.729111	45.3214
188.904266	86.647087	44.7473
190.273132	86.558212	44.2062
191.651932	86.497910	43.7163
193.040726	86.433205	43.2801
194.439575	86.333305	42.8871
195.848572	86.226295	42.5946
197.267761	86.124367	42.5003
198.697250	86.045143	42.4740
200.137085	86.025024	42.4308
201.587372	86.020012	42.3304
203.048157	86.000450	42.0550
204.519531	85.959160	41.7519
206.001556	85.870644	41.4979
207.494324	85.760284	41.3880
208.997925	85.633232	41.5729
210.512405	85.525208	41.9619
212.037857	85.478058	42.5608
213.574371	85.478935	43.2284
215.122025	85.531929	43.8481
216.680893	85.627678	44.3499
218.251053	85.763954	44.6422
219.832581	85.923523	44.6724
221.425583	86.106895	44.2935
223.030121	86.258690	43.6967
224.646286	86.298477	42.9893
226.274170	86.301010	42.2798
227.913849	86.314774	41.7772
229.565399	86.339912	41.2872
231.228928	86.414108	40.6534
232.904510	86.472893	39.9671
234.592224	86.443825	39.2307
236.292191	86.387154	38.5576
238.004456	86.338745	38.1060
239.729126	86.301079	37.7459
241.466309	86.295624	37.4126
243.216080	86.300987	37.0650
244.978516	86.306313	36.6181
246.753738	86.301048	36.1394
248.541809	86.268875	35.6362
250.342850	86.216179	35.2050
252.156937	86.129356	34.9710
253.984161	86.052155	34.8572
255.824646	86.032944	34.8785
257.678467	86.044945	34.8831
259.545685	86.092247	34.6787
261.426483	86.129936	34.3997
263.320862	86.092934	34.1072
265.229004	86.045120	33.8327
267.150970	86.041489	33.6557
269.086853	86.044991	33.4935
271.036774	86.039284	33.2368
273.000824	86.016106	33.0424
274.979095	85.933846	33.0866
276.971710	85.876083	33.2056
278.978760	85.951485	33.2948
281.000336	86.044777	33.3479
283.036591	86.039581	33.3304
285.087585	86.044914	33.2235
287.153442	86.172585	33.0005
289.234283	86.300713	32.6501
291.330200	86.317017	32.0946
293.441284	86.301064	31.5076
295.567688	86.301003	31.0695
297.709503	86.301003	30.6840
299.866821	86.301003	30.3092
302.039795	86.301003	29.9580
304.228485	86.295631	29.6546
306.433044	86.300964	29.3240
308.653595	86.345940	28.8977
310.890228	86.386909	28.3795
313.143066	86.390419	27.6835
315.412231	86.354156	27.0107
317.697845	86.241096	26.5526
320.000000	86.122307	26.2566
322.318848	86.069115	26.1892
324.654510	86.045044	26.1820
327.007080	86.043434	26.0713
329.376709	86.044991	25.9076
331.763519	86.026573	25.6613
334.167603	85.993134	25.4117
336.589142	85.940002	25.2054
339.028198	85.873215	25.1121
341.484924	85.780548	25.2615
343.959473	85.712120	25.5202
346.451935	85.734573	25.8248
348.962463	85.786850	26.0914
351.491211	85.824890	26.1859
354.038239	85.862892	26.1951
356.603760	85.900391	26.1635
359.187866	85.937897	26.0853
361.790680	85.975891	25.9698
364.412354	86.013893	25.8154
367.053040	86.051392	25.6268
369.712860	86.088882	25.3938
372.391968	86.128387	25.1112
375.090454	86.164909	24.7681
377.808533	86.199738	24.3273
380.546265	86.215996	23.8623
383.303864	86.187805	23.4199
386.081451	86.143127	23.0439
388.879150	86.099686	22.8182
391.697144	86.063095	22.6704
394.535522	86.049034	22.5666
397.394501	86.045006	22.4733
400.274170	86.045303	22.3378
403.174744	86.045006	22.1835
406.096313	86.037476	22.0009
409.039062	86.022072	21.8364
412.003113	85.989166	21.7435
414.988647	85.959076	21.6941
417.995850	85.955055	21.6875
421.024811	85.958977	21.6940
424.075714	85.959000	21.6709
427.148743	85.959000	21.6560
430.244049	85.953629	21.6932
433.361786	85.958954	21.7219
436.502106	86.001854	21.6880
439.665161	86.044884	21.6143
442.851166	86.050377	21.4830
446.060242	86.045013	21.3633
449.292572	86.043190	21.3256
452.548340	86.044983	21.3499
455.827698	86.046890	21.4787
459.130798	86.073853	21.5938
462.457855	86.168976	21.5955
465.809021	86.274689	21.4677
469.184448	86.343391	21.1118
472.584381	86.386909	20.6754
476.008911	86.394005	20.2740
479.458252	86.387032	19.9081
482.932617	86.387001	19.6266
486.432159	86.387001	19.3977
489.957031	86.387001	19.1936
493.507477	86.386993	19.0494
497.083618	86.373077	19.0438
500.685699	86.386879	19.0193
504.313873	86.496735	18.8337
507.968323	86.609703	18.5162
511.649292	86.635666	17.9965
515.356934	86.632042	17.4328
519.091370	86.628212	16.9834
522.852966	86.620033	16.5813
526.641724	86.613525	16.2141
530.458008	86.607025	15.8721
534.301941	86.601021	15.5416
538.173706	86.595016	15.2220
542.073547	86.588577	14.9088
546.001648	86.582024	14.6001
549.958191	86.575401	14.2933
553.943420	86.569023	13.9869
557.957520	86.562706	13.6827
562.000671	86.558006	13.3680
566.073181	86.557312	13.0367
570.175171	86.557999	12.6713
574.306885	86.559685	12.2582
578.468567	86.558014	11.7798
582.660400	86.555405	11.1968
586.882568	86.531136	10.5603
591.135376	86.467484	9.8420
595.419006	86.357452	9.2417
599.733643	86.158524	8.9804
604.079590	85.959633	8.9677
608.456970	85.858154	9.2283
612.866089	85.788208	9.6325
617.307190	85.705063	10.0493
621.780457	85.640167	10.5054
626.286133	85.618782	10.9897
630.824463	85.615990	11.4874
635.395691	85.604942	11.9923
640.000000	85.615906	12.4664
644.637695	85.679970	12.8977
649.309021	85.768669	13.2023
654.014160	85.869972	13.2657
658.753418	85.964706	13.1656
663.527039	86.023018	12.9337
668.335205	86.064880	12.5953
673.178284	86.111443	12.1601
678.056396	86.129997	11.7065
682.969849	86.080162	11.2932
687.918945	86.005272	10.9898
692.903870	85.935616	10.9021
697.924927	85.871201	10.9805
702.982422	85.810608	11.2705
708.076477	85.787979	11.5909
713.207520	85.867981	11.7646
718.375732	85.958717	11.8210
723.581360	85.969696	11.6846
728.824707	85.959053	11.4966
734.106079	85.959000	11.3979
739.425720	85.959000	11.3173
744.783936	85.959938	11.2277
750.180908	85.959007	11.1334
755.617065	85.954895	11.0214
761.092529	85.944054	10.9164
766.607727	85.919479	10.8367
772.162903	85.890106	10.7891
777.758301	85.863594	10.7904
783.394287	85.837090	10.8278
789.071045	85.810150	10.8938
794.789001	85.783096	10.9896
800.548340	85.756027	11.1140
806.349487	85.729088	11.2675
812.192627	85.702591	11.4543
818.078125	85.676102	11.6622
824.006226	85.657455	11.8421
829.977295	85.622169	12.1068
835.991699	85.527664	12.5492
842.049622	85.435287	13.1823
848.151428	85.393318	14.1196
854.297485	85.399872	15.1532
860.488098	85.480927	16.1462
866.723572	85.600502	16.9933
873.004211	85.758774	17.4207
879.330322	85.872749	17.7965
885.702332	85.808136	18.3452
892.120483	85.717285	19.2330
898.585144	85.710518	20.7711
905.096680	85.783546	22.7490
911.655396	85.913803	25.3524
918.261597	86.264145	27.6996
924.915710	87.126495	29.0216
931.618042	88.095497	29.1501
938.368896	88.835464	27.3579
945.168762	89.419121	24.5588
952.017822	89.780983	21.4095
958.916504	90.006340	17.9765
965.865234	90.186035	14.4702
972.864319	90.240082	11.1039
979.914062	90.059097	8.1824
987.014954	89.818886	5.6428
994.167236	89.703392	3.5775
1001.371399	89.583504	1.8219
1008.627747	89.365318	0.1946
1015.936646	89.122032	-1.1679
1023.298584	88.909042	-2.2180
1030.713867	88.688744	-2.8646
1038.182739	88.379791	-2.8357
1045.705933	88.166542	-2.6278
1053.283447	88.301788	-2.5803
1060.916016	88.504196	-2.9015
1068.603882	88.556480	-4.1283
1076.347412	88.509422	-5.6149
1084.147095	88.315170	-6.9047
1092.003296	88.056923	-7.9460
1099.916382	87.804764	-8.4980
1107.886841	87.552040	-8.6799
1115.915039	87.315407	-8.5563
1124.001343	87.093773	-8.0535
1132.146362	86.853767	-6.9996
1140.350342	86.708275	-5.7528
1148.613770	86.812157	-4.5388
1156.937134	87.009079	-3.5911
1165.320801	87.188278	-3.2952
1173.765137	87.363258	-3.4236
1182.270752	87.517662	-3.9244
1190.838013	87.632645	-4.6468
1199.467285	87.663383	-5.4125
1208.159180	87.670975	-6.2486
1216.913940	87.722755	-7.1218
1225.732178	87.756943	-8.0376
1234.614380	87.714218	-8.9849
1243.560913	87.652229	-9.9801
1252.572266	87.644402	-11.1020
1261.648926	87.586426	-12.1540
1270.791382	87.347832	-12.9995
1280.000000	87.077019	-13.5347
1289.275391	86.887589	-13.4824
1298.618042	86.758400	-13.2252
1308.028320	86.728966	-13.0624
1317.506836	86.728996	-12.9771
1327.054077	86.688744	-13.0741
1336.670410	86.644165	-13.2820
1346.356567	86.625336	-13.6019
1356.112793	86.582245	-13.9189
1365.939697	86.445839	-14.1212
1375.837891	86.301559	-14.1990
1385.807739	86.225746	-14.0509
1395.849854	86.179138	-13.8418
1405.964844	86.152267	-13.7313
1416.152954	86.130089	-13.6383
1426.415039	86.084610	-13.5398
1436.751465	86.045120	-13.4185
1447.162720	86.029007	-13.1990
1457.649414	86.044853	-13.0325
1468.212158	86.124832	-13.0494
1478.851440	86.215675	-13.2399
1489.567871	86.263657	-13.6462
1500.361816	86.300865	-14.2393
1511.234131	86.359795	-15.0302
1522.185059	86.387001	-15.9407
1533.215454	86.323341	-16.9323
1544.325806	86.216537	-17.8979
1555.516602	86.097626	-18.7013
1566.788574	85.959618	-19.3903
1578.142090	85.809547	-19.9958
1589.578003	85.635788	-20.4355
1601.096680	85.418381	-20.6631
1612.698975	85.188957	-20.6000
1624.385254	84.957184	-20.1017
1636.156250	84.769676	-19.3190
1648.012451	84.677383	-18.2451
1659.954590	84.677818	-17.2114
1671.983398	84.815529	-16.5284
1684.099243	84.999214	-16.2571
1696.302856	85.161888	-16.6621
1708.594971	85.273666	-17.4418
1720.976196	85.267586	-18.4479
1733.447144	85.188484	-19.4777
1746.008423	85.049675	-20.2730
1758.660645	84.880730	-20.8511
1771.404663	84.706940	-21.0880
1784.240967	84.554550	-21.1530
1797.170288	84.472069	-21.1362
1810.193359	84.418182	-21.1547
1823.310791	84.377487	-21.4045
1836.523193	84.319290	-21.7396
1849.831421	84.192238	-22.0964
1863.236084	84.042686	-22.4177
1876.737793	83.904121	-22.6001
1890.337524	83.765610	-22.7186
1904.035645	83.625137	-22.7860
1917.833008	83.488525	-22.8895
1931.730469	83.390091	-23.1973
1945.728638	83.242828	-23.4800
1959.828125	82.934547	-23.6249
