* Measurement data measured by REW V5.20 Beta 53
* Source: C:\Users\Napie\Music\REW\Top Speakers\New Folder\7-SP.txt
* Format: Comma/Tab/Space delimited data
* Dated: May 26, 2020 3:07:21 PM
* REW Settings:
*  C-weighting compensation: Off
*  Target level: 75.0 dB
* Note: ; Measurement imported from C:\Users\Napie\Music\REW\Top Speakers\New Folder\7-SP.txt Format: Comma/Tab/Space delimited data 623 values loaded, 5 Hz to 39,792 Hz log spaced 
* Measurement: 7-SP
* Smoothing: None
* Frequency Step: 1/96 octave
* Start Frequency: 20.000 Hz
*
* Freq(Hz)	SPL(dB)	Phase(degrees)
20.000000	57.600868	175.1274
20.144928	57.761494	174.5007
20.290907	57.876930	173.9105
20.437943	57.834667	173.5957
20.586044	57.791004	173.4690
20.735220	57.905125	173.5937
20.885475	58.056820	173.7549
21.036821	58.167683	173.7150
21.189262	58.270870	173.6052
21.342808	58.389744	173.4101
21.497467	58.475929	173.3329
21.653246	58.438366	173.6198
21.810154	58.427956	174.1272
21.968201	58.596611	174.9327
22.127390	58.851688	175.6174
22.287735	59.183010	175.6812
22.449242	59.493778	175.4432
22.611917	59.644009	175.0031
22.775772	59.752865	174.5245
22.940815	59.902603	174.2726
23.107054	60.064774	174.0443
23.274498	60.246433	173.7052
23.443153	60.422775	173.3135
23.613033	60.559978	172.8889
23.784142	60.691883	172.4144
23.956491	60.859032	171.8608
24.130091	61.007851	171.2856
24.304947	61.078426	170.7186
24.481071	61.129936	170.2146
24.658470	61.206947	169.8834
24.837156	61.293873	169.5904
25.017136	61.405933	169.1828
25.198421	61.494930	168.8233
25.381020	61.486458	168.6224
25.564941	61.473999	168.5859
25.750195	61.537907	168.8312
25.936790	61.643845	169.1346
26.124741	61.794338	169.3004
26.314051	61.958759	169.3610
26.504732	62.105556	169.2505
26.696796	62.239849	169.0703
26.890253	62.347443	168.9178
27.085112	62.454876	168.7402
27.281382	62.596195	168.5273
27.479073	62.734821	168.2474
27.678198	62.848866	167.8056
27.878765	62.927921	167.3815
28.080786	62.930450	167.1487
28.284271	62.927990	167.0331
28.489231	63.003826	167.0233
28.695675	63.081905	167.1028
28.903616	63.089367	167.2505
29.113064	63.098965	167.4697
29.324028	63.185944	167.7394
29.536524	63.270920	168.1115
29.750557	63.264637	168.6343
29.966141	63.270966	169.2972
30.183289	63.382206	170.1855
30.402010	63.544769	171.0600
30.622314	63.750805	171.6539
30.844217	63.954765	172.1324
31.067726	64.087517	172.5533
31.292856	64.211807	172.9753
31.519617	64.374695	173.5122
31.748020	64.554779	174.0573
31.978081	64.749695	174.5256
32.209808	64.948738	174.9644
32.443211	65.134613	175.3868
32.678310	65.324738	175.8114
32.915108	65.526543	176.3050
33.153625	65.752693	176.7365
33.393871	66.046524	176.9259
33.635857	66.323608	177.0857
33.879597	66.453819	177.4448
34.125103	66.616707	177.7766
34.372387	67.023689	177.9567
34.621464	67.451401	177.9053
34.872345	67.709442	177.3688
35.125042	67.907784	176.7447
35.379574	68.081917	176.4279
35.635948	68.266762	176.1773
35.894180	68.535248	175.8751
36.154285	68.808609	175.5425
36.416275	69.000023	175.2027
36.680161	69.205643	174.7339
36.945961	69.551094	173.9648
37.213688	69.862617	173.0664
37.483353	69.948242	172.0936
37.754974	69.985939	171.2252
38.028561	70.112617	170.7499
38.304131	70.261795	170.3945
38.581699	70.417091	169.9395
38.861279	70.563797	169.5076
39.142883	70.669296	169.1468
39.426529	70.770851	168.8643
39.712231	70.900688	168.7037
40.000000	71.041779	168.6041
40.289856	71.190529	168.4903
40.581814	71.338799	168.4480
40.875885	71.456566	168.5885
41.172089	71.605728	168.7617
41.470440	71.870987	168.8518
41.770950	72.154541	168.8660
42.073643	72.357193	168.7649
42.378525	72.566681	168.5743
42.685616	72.860893	168.3436
42.994934	73.171562	167.9637
43.306492	73.454094	167.3010
43.620308	73.714622	166.4763
43.936401	73.947037	165.5276
44.254780	74.143723	164.5715
44.575470	74.277740	163.7465
44.898483	74.400803	163.0251
45.223835	74.566360	162.4484
45.551544	74.742737	161.9477
45.881630	74.910187	161.4553
46.214108	75.085724	161.0076
46.548996	75.269005	160.6881
46.886307	75.492607	160.2897
47.226067	75.821632	159.6290
47.568283	76.158447	158.7178
47.912983	76.412857	157.4505
48.260181	76.626671	155.9966
48.609894	76.819221	154.4696
48.962143	76.968811	152.9333
49.316940	77.049339	151.4601
49.674313	77.092957	150.1370
50.034271	77.113472	149.1133
50.396843	77.139938	148.2751
50.762039	77.212799	147.6078
51.129883	77.311813	146.9612
51.500389	77.450508	146.1191
51.873581	77.567833	145.2635
52.249481	77.573265	144.5077
52.628101	77.567993	143.8430
53.009464	77.653839	143.3150
53.393593	77.739876	142.8737
53.780506	77.757439	142.3930
54.170223	77.740051	142.1461
54.562763	77.674911	142.3738
54.958145	77.633026	143.0496
55.356396	77.664108	144.3511
55.757530	77.819618	145.9044
56.161572	78.166588	147.6423
56.568542	78.707924	148.8188
56.978462	79.573349	148.6017
57.391350	80.449501	147.1778
57.807232	81.051361	144.0847
58.226128	81.420586	140.4413
58.648056	81.426079	137.1993
59.073048	81.303238	134.4101
59.501114	81.252686	132.6323
59.932281	81.249947	131.2902
60.366577	81.357513	130.0527
60.804020	81.513702	128.7374
61.244629	81.706131	126.9396
61.688435	81.848839	124.9954
62.135452	81.810944	123.0496
62.585712	81.714188	121.2758
63.039234	81.643242	119.9526
63.496040	81.580101	118.9105
63.956161	81.525322	118.1254
64.419617	81.506996	117.4372
64.886421	81.580475	116.6694
65.356621	81.664879	115.8465
65.830215	81.681366	114.8908
66.307251	81.678017	113.9338
66.787743	81.678818	113.0984
67.271713	81.678001	112.3353
67.759193	81.678001	111.6315
68.250206	81.678001	111.0001
68.744774	81.674751	110.4528
69.242928	81.677994	109.9808
69.744690	81.696510	109.5900
70.250084	81.729919	109.2476
70.759148	81.776581	108.9601
71.271896	81.848839	108.6147
71.788361	81.984680	108.0466
72.308571	82.105820	107.4182
72.832550	82.106148	106.8431
73.360321	82.105965	106.3049
73.891922	82.217064	105.8999
74.427376	82.360718	105.4031
74.966705	82.506187	104.5425
75.509949	82.619835	103.5529
76.057121	82.636200	102.5496
76.608261	82.620049	101.6227
77.163399	82.615509	100.9423
77.722557	82.619980	100.3830
78.285767	82.649742	99.8844
78.853058	82.691910	99.4200
79.424461	82.736916	98.9487
80.000000	82.790878	98.4530
80.579712	82.861992	97.9053
81.163628	82.934860	97.2942
81.751770	83.000381	96.5721
82.344177	83.047928	95.8195
82.940880	83.056000	95.0939
83.541901	83.048027	94.4182
84.147285	83.044945	93.8337
84.757050	83.033028	93.3428
85.371231	83.001320	92.9466
85.989868	82.962074	92.6914
86.612984	82.922394	92.6049
87.240616	82.887062	92.7444
87.872803	82.833237	93.2888
88.509560	82.850845	93.9018
89.150940	83.081703	94.3089
89.796967	83.348480	94.4999
90.447670	83.489189	94.2749
91.103088	83.596802	93.9297
91.763260	83.709396	93.7382
92.428215	83.831741	93.5703
93.097992	83.982491	93.4292
93.772614	84.157631	93.1866
94.452133	84.389175	92.6149
95.136566	84.587669	92.0152
95.825966	84.601974	91.6933
96.520363	84.647789	91.4126
97.219788	84.965622	91.1231
97.924286	85.333275	90.5656
98.633881	85.593803	89.3043
99.348625	85.787689	87.8170
100.068542	85.874733	86.4768
100.793686	85.941818	85.1692
101.524078	86.089355	83.9342
102.259766	86.237656	82.6772
103.000778	86.330521	81.2727
103.747162	86.395897	79.8517
104.498962	86.444305	78.4882
105.256203	86.472969	77.2292
106.018929	86.461823	76.2059
106.787186	86.472931	75.2399
107.561012	86.590004	74.2464
108.340446	86.728790	73.0731
109.125526	86.852280	71.4001
109.916290	86.901016	69.6440
110.712791	86.756668	68.0727
111.515060	86.558411	66.8162
112.323143	86.408333	66.1998
113.137085	86.301170	65.9054
113.956924	86.279991	65.7288
114.782700	86.300919	65.6472
115.614464	86.313248	65.6269
116.452255	86.379799	65.4974
117.296112	86.585945	65.0990
118.146095	86.814560	64.3639
119.002228	86.981064	63.0253
119.864563	87.071884	61.5209
120.733154	87.002800	60.2119
121.608040	86.901199	59.0672
122.489258	86.890305	58.2421
123.376869	86.900970	57.5356
124.270905	86.900879	56.7708
125.171425	86.901001	56.0293
126.078468	86.895508	55.3643
126.992081	86.902962	54.6865
127.912323	86.961632	53.8826
128.839233	87.006950	53.0766
129.772842	86.949951	52.3812
130.713242	86.901047	51.7183
131.660431	86.977333	51.0884
132.614502	87.071762	50.3672
133.575485	87.110756	49.3407
134.543427	87.109055	48.2769
135.518387	87.037834	47.3858
136.500412	86.955139	46.6332
137.489548	86.918427	46.0916
138.485855	86.901024	45.6490
139.489380	86.893127	45.2209
140.500168	86.900970	44.7969
141.518295	86.930725	44.3464
142.543793	86.972878	43.8464
143.576721	87.021004	43.2608
144.617142	87.071892	42.5985
145.665100	87.120255	41.8633
146.720642	87.165886	41.0353
147.783844	87.220940	40.0350
148.854752	87.243004	39.0444
149.933411	87.156113	38.2482
151.019897	87.072151	37.5626
152.114243	87.108406	37.0155
153.216522	87.174812	36.4536
154.326797	87.204865	35.7364
155.445114	87.242889	34.8512
156.571533	87.343231	33.6985
157.706116	87.410934	32.4010
158.848923	87.344055	30.9709
160.000000	87.216347	29.6419
161.159424	87.061638	28.6722
162.327255	86.899361	28.0031
163.503540	86.740547	27.7795
164.688354	86.644112	27.6473
165.881760	86.730743	27.2690
167.083801	86.826820	26.7366
168.294571	86.757874	25.9327
169.514099	86.644279	25.1506
170.742462	86.547287	24.7252
171.979736	86.473145	24.4187
173.225967	86.462303	24.1193
174.481232	86.472961	23.7798
175.745605	86.473000	23.3069
177.019119	86.473000	22.7305
178.301880	86.483742	22.0176
179.593933	86.473068	21.2639
180.895340	86.394470	20.5487
182.206177	86.301216	19.8895
183.526520	86.241127	19.3519
184.856430	86.185127	18.8701
186.195984	86.118660	18.3759
187.545227	86.045189	17.9390
188.904266	85.952896	17.6342
190.273132	85.873169	17.3786
191.651932	85.851028	17.1072
193.040726	85.834068	16.8397
194.439575	85.765770	16.5773
195.848572	85.702156	16.3127
197.267761	85.696808	16.0625
198.697250	85.702003	15.7568
200.137085	85.688614	15.2799
201.587372	85.653107	14.7852
203.048157	85.563614	14.4177
204.519531	85.476219	14.0880
206.001556	85.463837	13.7398
207.494324	85.445084	13.4158
208.997925	85.335350	13.1182
210.512405	85.215263	12.9124
212.037857	85.150124	12.8969
213.574371	85.103104	12.9738
215.122025	85.050987	13.0819
216.680893	85.017052	13.2076
218.251053	85.021324	13.3502
219.832581	85.050888	13.4100
221.425583	85.114456	13.2437
223.030121	85.166916	12.9797
224.646286	85.141518	12.7042
226.274170	85.111061	12.4058
227.913849	85.146896	12.1227
229.565399	85.187920	11.7909
231.228928	85.188339	11.3311
232.904510	85.172066	10.8256
234.592224	85.154564	10.3046
236.292191	85.116135	9.8461
238.004456	85.020752	9.5619
239.729126	84.932190	9.3813
241.466309	84.920486	9.3068
243.216080	84.931961	9.2303
244.978516	84.931999	9.0296
246.753738	84.931999	8.7499
248.541809	84.941803	8.3606
250.342850	84.932060	7.9680
252.156937	84.854668	7.6771
253.984161	84.775177	7.4624
255.824646	84.757698	7.3698
257.678467	84.759987	7.2903
259.545685	84.759064	7.1150
261.426483	84.760002	6.8887
263.320862	84.760002	6.6267
265.229004	84.760002	6.3090
267.150970	84.765312	5.9164
269.086853	84.760040	5.4604
271.036774	84.739052	4.8690
273.000824	84.675270	4.3732
274.979095	84.498726	4.2194
276.971710	84.332390	4.2935
278.978760	84.305176	4.6393
281.000336	84.331886	5.0261
283.036591	84.364189	5.2292
285.087585	84.417801	5.2711
287.153442	84.508614	5.0732
289.234283	84.588821	4.7161
291.330200	84.599693	4.2397
293.441284	84.589035	3.6896
295.567688	84.604294	3.0834
297.709503	84.589104	2.5432
299.866821	84.462250	2.2331
302.039795	84.344261	2.0455
304.228485	84.365555	1.9805
306.433044	84.417854	1.8765
308.653595	84.425751	1.5233
310.890228	84.418037	1.0644
313.143066	84.405998	0.5418
315.412231	84.368141	0.0532
317.697845	84.261688	-0.2539
320.000000	84.161247	-0.4865
322.318848	84.158737	-0.7001
324.654510	84.161041	-0.9033
327.007080	84.079025	-1.1405
329.376709	83.990234	-1.3584
331.763519	83.960571	-1.4945
334.167603	83.938087	-1.6196
336.589142	83.886299	-1.8134
339.028198	83.823196	-1.9886
341.484924	83.752449	-2.0775
343.959473	83.681198	-2.0980
346.451935	83.618156	-2.0415
348.962463	83.562141	-1.9214
351.491211	83.511681	-1.7339
354.038239	83.476074	-1.5217
356.603760	83.470619	-1.3263
359.187866	83.475975	-1.1475
361.790680	83.470627	-0.9890
364.412354	83.475960	-0.8793
367.053040	83.518867	-0.8575
369.712860	83.561890	-0.8958
372.391968	83.562065	-0.9735
375.090454	83.561981	-1.1065
377.808533	83.609673	-1.3203
380.546265	83.646942	-1.5663
383.303864	83.609947	-1.8207
386.081451	83.562119	-2.0334
388.879150	83.551369	-2.0939
391.697144	83.561928	-2.1597
394.535522	83.604362	-2.3599
397.394501	83.646896	-2.6730
400.274170	83.663002	-3.1724
403.174744	83.647118	-3.7004
406.096313	83.567154	-4.1094
409.039062	83.476265	-4.4391
412.003113	83.433128	-4.6677
414.988647	83.390160	-4.8345
417.995850	83.315468	-5.0361
421.024811	83.219345	-5.0802
424.075714	83.064194	-4.6967
427.148743	82.962158	-4.2115
430.244049	83.073982	-3.8445
433.361786	83.218590	-3.6522
436.502106	83.235085	-3.8398
439.665161	83.219070	-4.1788
442.851166	83.235046	-4.5376
446.060242	83.219131	-4.8263
449.292572	83.089111	-4.8925
452.548340	82.962311	-4.7936
455.827698	82.956818	-4.4777
459.130798	82.990860	-4.1230
462.457855	83.010536	-3.8936
465.809021	83.047844	-3.7831
469.184448	83.136765	-3.8589
472.584381	83.218796	-4.0632
476.008911	83.229698	-4.3898
479.458252	83.219048	-4.7499
482.932617	83.219002	-5.0260
486.432159	83.219002	-5.2971
489.957031	83.223808	-5.6179
493.507477	83.219040	-5.9460
497.083618	83.186501	-6.2714
500.685699	83.142159	-6.5492
504.313873	83.091164	-6.7051
507.968323	83.048111	-6.8157
511.649292	83.040199	-6.9348
515.356934	83.035027	-7.0576
519.091370	83.002373	-7.2167
522.852966	82.962135	-7.3527
526.641724	82.921814	-7.3992
530.458008	82.889084	-7.4080
534.301941	82.878456	-7.4011
538.173706	82.876999	-7.4020
542.073547	82.876251	-7.4510
546.001648	82.876999	-7.5197
549.958191	82.871696	-7.5694
553.943420	82.876953	-7.6705
557.957520	82.922592	-7.8959
562.000671	82.961906	-8.2018
566.073181	82.943466	-8.5801
570.175171	82.910118	-8.9956
574.306885	82.901039	-9.4158
578.468567	82.877129	-9.8246
582.660400	82.799988	-10.2150
586.882568	82.705330	-10.5281
591.135376	82.619164	-10.6949
595.419006	82.533279	-10.7381
599.733643	82.437546	-10.6234
604.079590	82.363197	-10.4536
608.456970	82.356232	-10.3082
612.866089	82.362984	-10.2241
617.307190	82.344284	-10.3228
621.780457	82.301193	-10.4297
626.286133	82.205284	-10.3994
630.824463	82.106300	-10.2636
635.395691	82.056824	-9.9950
640.000000	82.021118	-9.6274
644.637695	81.962166	-9.1469
649.309021	81.935005	-8.6705
654.014160	82.014801	-8.3270
658.753418	82.105743	-8.0707
663.527039	82.100655	-7.8821
668.335205	82.105896	-7.8090
673.178284	82.235031	-7.8848
678.056396	82.362648	-8.1339
682.969849	82.378349	-8.6614
687.918945	82.347153	-9.2590
692.903870	82.306694	-9.7781
697.924927	82.231331	-10.1411
702.982422	82.076294	-10.1767
708.076477	81.935410	-10.0168
713.207520	81.916473	-9.6832
718.375732	81.934914	-9.3391
723.581360	81.940369	-9.2155
728.824707	81.935051	-9.1343
734.106079	81.890541	-8.9822
739.425720	81.849106	-8.7908
744.783936	81.852821	-8.5274
750.180908	81.874901	-8.2728
755.617065	81.901138	-8.0988
761.092529	81.934860	-8.0012
766.607727	81.979713	-8.0052
772.162903	82.020874	-8.0945
777.758301	82.041634	-8.2646
783.394287	82.050987	-8.5050
789.071045	82.062683	-8.8371
794.789001	82.046127	-9.1609
800.548340	81.956367	-9.3831
806.349487	81.849365	-9.5038
812.192627	81.787170	-9.5219
818.078125	81.708351	-9.3500
824.006226	81.536316	-8.8929
829.977295	81.376465	-8.1710
835.991699	81.327812	-7.1180
842.049622	81.335876	-5.8995
848.151428	81.362862	-4.6242
854.297485	81.455505	-3.4003
860.488098	81.661964	-2.2867
866.723572	81.941849	-1.5408
873.004211	82.302231	-1.4940
879.330322	82.647858	-1.9872
885.702332	82.876717	-3.0809
892.120483	83.014671	-4.4429
898.585144	83.048416	-5.8296
905.096680	82.995346	-7.0312
911.655396	82.838707	-7.7426
918.261597	82.667580	-8.0059
924.915710	82.555016	-7.6126
931.618042	82.533852	-7.0132
938.368896	82.697083	-6.5233
945.168762	82.937035	-6.3478
952.017822	83.191628	-6.8872
958.916504	83.414276	-7.8695
965.865234	83.528587	-9.2465
972.864319	83.562012	-10.7385
979.914062	83.492531	-12.0053
987.014954	83.393356	-13.1777
994.167236	83.367378	-14.3057
1001.371399	83.305351	-15.2988
1008.627747	83.094887	-16.1423
1015.936646	82.845062	-16.6577
1023.298584	82.626953	-16.5945
1030.713867	82.445511	-16.1490
1038.182739	82.325623	-15.3856
1045.705933	82.277031	-14.4591
1053.283447	82.317513	-13.4594
1060.916016	82.448235	-12.6448
1068.603882	82.705978	-12.2927
1076.347412	83.001793	-12.4402
1084.147095	83.262543	-13.2920
1092.003296	83.475388	-14.6208
1099.916382	83.603874	-16.3323
1107.886841	83.647018	-18.2250
1115.915039	83.582848	-20.1204
1124.001343	83.437653	-21.8562
1132.146362	83.213470	-23.1942
1140.350342	82.961960	-24.1829
1148.613770	82.733742	-24.7166
1156.937134	82.534752	-25.0210
1165.320801	82.415123	-25.3378
1173.765137	82.292618	-25.5195
1182.270752	82.056091	-25.4764
1190.838013	81.839737	-25.2701
1199.467285	81.773308	-24.8451
1208.159180	81.763985	-24.4651
1216.913940	81.769173	-24.4446
1225.732178	81.764076	-24.5833
1234.614380	81.691498	-24.7788
1243.560913	81.606308	-25.0439
1252.572266	81.573288	-25.4048
1261.648926	81.507401	-25.7209
1270.791382	81.304268	-25.8811
1280.000000	81.083824	-25.8208
1289.275391	80.942223	-25.3459
1298.618042	80.850273	-24.7346
1308.028320	80.821480	-24.1982
1317.506836	80.821960	-23.7496
1327.054077	80.824112	-23.5004
1336.670410	80.822037	-23.3624
1346.356567	80.797928	-23.3065
1356.112793	80.760170	-23.2642
1365.939697	80.701851	-23.1300
1375.837891	80.651169	-22.9846
1385.807739	80.648361	-22.8641
1395.849854	80.651009	-22.7991
1405.964844	80.629501	-22.8822
1416.152954	80.584221	-22.9637
1426.415039	80.490562	-22.9148
1436.751465	80.394333	-22.7618
1447.162720	80.339294	-22.4493
1457.649414	80.308075	-22.0964
1468.212158	80.302620	-21.8087
1478.851440	80.307968	-21.5737
1489.567871	80.307999	-21.4216
1500.361816	80.307999	-21.3292
1511.234131	80.307999	-21.2735
1522.185059	80.307991	-21.2848
1533.215454	80.318672	-21.4214
1544.325806	80.308121	-21.5784
1555.516602	80.228271	-21.6686
1566.788574	80.137360	-21.6931
1578.142090	80.094170	-21.6213
1589.578003	80.051216	-21.4619
1601.096680	79.960503	-21.2030
1612.698975	79.880264	-20.8745
1624.385254	79.869293	-20.4714
1636.156250	79.879936	-20.0856
1648.012451	79.885300	-19.8530
1659.954590	79.880051	-19.6368
1671.983398	79.835800	-19.3406
1684.099243	79.795128	-18.9747
1696.302856	79.795815	-18.4853
1708.594971	79.824799	-17.9703
1720.976196	79.875694	-17.4584
1733.447144	79.965508	-17.1050
1746.008423	80.142838	-17.1210
1758.660645	80.307434	-17.3726
1771.404663	80.343636	-17.8397
1784.240967	80.343033	-18.3857
1797.170288	80.370583	-18.8248
1810.193359	80.393921	-19.2811
1823.310791	80.404610	-19.8341
1836.523193	80.394081	-20.4375
1849.831421	80.361794	-21.1571
1863.236084	80.275551	-21.7350
1876.737793	80.055977	-21.8945
1890.337524	79.842789	-21.7512
1904.035645	79.782913	-21.2623
1917.833008	79.779945	-20.6326
1931.730469	79.756683	-19.9829
1945.728638	79.797615	-19.5263
1959.828125	80.024498	-19.5347
1974.029907	80.252182	-19.9532
1988.334473	80.307472	-20.9568
2002.742798	80.270317	-22.1243
2017.255493	80.157761	-23.0974
2031.873291	79.989761	-23.8516
2046.597168	79.782990	-24.2344
