* Measurement data measured by REW V5.20 Beta 53
* Source: C:\Users\Napie\Music\REW\Top Speakers\New Folder\11-LW.txt
* Format: Comma/Tab/Space delimited data
* Dated: May 26, 2020 3:20:53 PM
* REW Settings:
*  C-weighting compensation: Off
*  Target level: 75.0 dB
* Note: ; Measurement imported from C:\Users\Napie\Music\REW\Top Speakers\New Folder\11-LW.txt Format: Comma/Tab/Space delimited data 623 values loaded, 5 Hz to 39,792 Hz log spaced 
* Measurement: 11-LW
* Smoothing: None
* Frequency Step: 1/96 octave
* Start Frequency: 20.000 Hz
*
* Freq(Hz)	SPL(dB)	Phase(degrees)
20.000000	61.273815	-138.0896
20.144928	61.465260	-138.5394
20.290907	61.655830	-139.0066
20.437943	61.848793	-139.5187
20.586044	62.030876	-140.0077
20.735220	62.173561	-140.3866
20.885475	62.325806	-140.7396
21.036821	62.552216	-141.1399
21.189262	62.777737	-141.5335
21.342808	62.916893	-141.8808
21.497467	63.064789	-142.2106
21.653246	63.309467	-142.4673
21.810154	63.587620	-142.8653
21.968201	63.882969	-143.6802
22.127390	64.141762	-144.6749
22.287735	64.281342	-145.7482
22.449242	64.371941	-146.7653
22.611917	64.461487	-147.5478
22.775772	64.534927	-148.1254
22.940815	64.581062	-148.4520
23.107054	64.635910	-148.5770
23.274498	64.745651	-148.5498
23.443153	64.868835	-148.3244
23.613033	64.946465	-147.8237
23.784142	65.076851	-147.1896
23.956491	65.365044	-146.4513
24.130091	65.732536	-145.8715
24.304947	66.144104	-145.7507
24.481071	66.574432	-146.0054
24.658470	66.992622	-146.7100
24.837156	67.380493	-147.6895
25.017136	67.690453	-148.7856
25.198421	67.979706	-150.0217
25.381020	68.307510	-151.3504
25.564941	68.620712	-152.8265
25.750195	68.885864	-154.5439
25.936790	69.102753	-156.3377
26.124741	69.249634	-158.0823
26.314051	69.357864	-159.7536
26.504732	69.460320	-161.3139
26.696796	69.530937	-162.6795
26.890253	69.525513	-163.7143
27.085112	69.530968	-164.5372
27.281382	69.650505	-165.2003
27.479073	69.791817	-165.7683
27.678198	69.874626	-166.3500
27.878765	69.964836	-166.8643
28.080786	70.101776	-167.1841
28.284271	70.285713	-167.5544
28.489231	70.558548	-168.2060
28.695675	70.834641	-169.0577
28.903616	71.020378	-170.1391
29.113064	71.180771	-171.3463
29.324028	71.366203	-172.5934
29.536524	71.527832	-173.8545
29.750557	71.615730	-175.0902
29.966141	71.682922	-176.2558
30.183289	71.772209	-177.2670
30.402010	71.864883	-178.2029
30.622314	71.955887	-179.1185
30.844217	72.046883	179.9991
31.067726	72.137802	179.1459
31.292856	72.228859	178.3173
31.519617	72.320374	177.5070
31.748020	72.411888	176.7150
31.978081	72.502960	175.9385
32.209808	72.593880	175.1780
32.443211	72.684883	174.4338
32.678310	72.775879	173.7029
32.915108	72.866821	172.9824
33.153625	72.957886	172.2719
33.393871	73.049377	171.5701
33.635857	73.140854	170.8781
33.879597	73.231926	170.1973
34.125103	73.322876	169.5249
34.372387	73.413864	168.8585
34.621464	73.504852	168.1980
34.872345	73.595810	167.5426
35.125042	73.686882	166.8928
35.379574	73.778389	166.2495
35.635948	73.869896	165.6108
35.894180	73.960938	164.9758
36.154285	74.051872	164.3429
36.416275	74.142868	163.7100
36.680161	74.233864	163.0770
36.945961	74.324799	162.4440
37.213688	74.415863	161.8079
37.483353	74.507362	161.1691
37.754974	74.598862	160.5180
38.028561	74.690430	159.8517
38.304131	74.780876	159.1520
38.581699	74.876434	158.3739
38.861279	74.954895	157.5942
39.142883	74.984222	156.8623
39.426529	74.999977	156.2158
39.712231	75.025215	155.7526
40.000000	75.065926	155.3406
40.289856	75.152931	154.8626
40.581814	75.234894	154.3707
40.875885	75.263420	153.8067
41.172089	75.260033	153.3854
41.470440	75.200653	153.3663
41.770950	75.173996	153.5586
42.073643	75.281967	153.9635
42.378525	75.461700	154.2628
42.685616	75.715698	154.0378
42.994934	75.948715	153.5878
43.306492	76.021858	153.0458
43.620308	76.067917	152.4948
43.936401	76.197906	152.1105
44.254780	76.339775	151.7476
44.575470	76.446457	151.3094
44.898483	76.552826	150.8238
45.223835	76.690231	150.2933
45.551544	76.822815	149.6989
45.881630	76.926743	148.9646
46.214108	76.996925	148.2630
46.548996	76.997078	147.7733
46.886307	76.996979	147.4015
47.226067	77.083344	147.1041
47.568283	77.169876	146.9072
47.912983	77.169258	146.7986
48.260181	77.169968	146.8507
48.609894	77.233925	147.2222
48.962143	77.354774	147.6434
49.316940	77.565628	147.9075
49.674313	77.809593	147.9821
50.034271	78.042526	147.7176
50.396843	78.258690	147.2598
50.762039	78.435371	146.6581
51.129883	78.579773	146.0540
51.500389	78.665909	145.6759
51.873581	78.770767	145.3137
52.249481	79.011261	144.7962
52.628101	79.242661	144.2320
53.009464	79.303864	143.6760
53.393593	79.358864	143.1199
53.780506	79.573547	142.5754
54.170223	79.783699	142.0379
54.562763	79.838821	141.4111
54.958145	79.860962	140.9814
55.356396	79.901199	141.1577
55.757530	80.023689	141.4785
56.161572	80.346130	141.7356
56.568542	80.759285	141.5738
56.978462	81.237076	140.3973
57.391350	81.646378	138.7175
57.807232	81.788170	136.7507
58.226128	81.832962	134.7922
58.648056	81.893715	133.2832
59.073048	81.946915	132.0020
59.501114	81.999710	130.9124
59.932281	82.071846	129.8948
60.366577	82.203629	128.8198
60.804020	82.340782	127.6810
61.244629	82.432991	126.4111
61.688435	82.507881	125.0644
62.135452	82.590691	123.6379
62.585712	82.638969	122.2373
63.039234	82.596283	120.9509
63.496040	82.529106	119.8277
63.956161	82.490181	118.9897
64.419617	82.465034	118.3071
64.886421	82.460991	117.6802
65.356621	82.464989	117.1389
65.830215	82.454124	116.7140
66.307251	82.464951	116.3048
66.787743	82.551826	115.8047
67.271713	82.638870	115.2610
67.759193	82.649879	114.6317
68.250206	82.639023	114.0789
68.744774	82.622757	113.8232
69.242928	82.638931	113.6483
69.744690	82.756821	113.4276
70.250084	82.898743	113.1097
70.759148	83.000748	112.5645
71.271896	83.089844	111.9033
71.788361	83.180283	111.1620
72.308571	83.246918	110.4383
72.832550	83.245140	109.8615
73.360321	83.246971	109.3728
73.891922	83.324883	109.0197
74.427376	83.433762	108.6129
74.966705	83.568939	107.9122
75.509949	83.680840	107.1155
76.057121	83.691078	106.3276
76.608261	83.681007	105.5904
77.163399	83.721474	105.0027
77.722557	83.766907	104.4979
78.285767	83.779282	104.0669
78.853058	83.805916	103.6349
79.424461	83.912170	103.0852
80.000000	84.006874	102.5340
80.579712	83.976570	102.0806
81.163628	83.951996	101.6618
81.751770	84.072784	101.2553
82.344177	84.200768	100.8369
82.940880	84.205452	100.3442
83.541901	84.200974	99.8689
84.147285	84.279198	99.5390
84.757050	84.378799	99.1848
85.371231	84.474960	98.6100
85.989868	84.548889	98.0182
86.612984	84.543404	97.5905
87.240616	84.548950	97.2008
87.872803	84.676346	96.7782
88.509560	84.808769	96.3339
89.150940	84.827477	95.8556
89.796967	84.846924	95.3441
90.447670	84.980522	94.8062
91.103088	85.114761	94.2133
91.763260	85.147530	93.4900
92.428215	85.155991	92.7823
93.097992	85.187675	92.2630
93.772614	85.230896	91.7790
94.452133	85.304169	91.1958
95.136566	85.363907	90.6281
95.825966	85.351295	90.1263
96.520363	85.330025	89.7506
97.219788	85.341927	89.6533
97.924286	85.394836	89.6082
98.633881	85.531448	89.4402
99.348625	85.688698	89.1447
100.068542	85.809563	88.6208
100.793686	85.917747	87.9837
101.524078	86.014824	87.3373
102.259766	86.110756	86.6149
103.000778	86.230255	85.7606
103.747162	86.330833	84.8438
104.498962	86.365227	83.8804
105.256203	86.372017	82.9765
106.018929	86.366508	82.2907
106.787186	86.371979	81.6831
107.561012	86.433632	81.0696
108.340446	86.500900	80.4390
109.125526	86.531029	79.7136
109.916290	86.544991	79.0092
110.712791	86.539879	78.4504
111.515060	86.544952	77.9340
112.323143	86.604858	77.4040
113.137085	86.670868	76.8412
113.956924	86.702827	76.1750
114.782700	86.718979	75.5046
115.614464	86.722000	74.9031
116.452255	86.719009	74.3799
117.296112	86.709633	74.0059
118.146095	86.718948	73.6687
119.002228	86.791870	73.2621
119.864563	86.868835	72.8371
120.733154	86.878036	72.4358
121.608040	86.899910	71.9811
122.489258	87.028130	71.4057
123.376869	87.152756	70.7218
124.270905	87.174133	69.8329
125.171425	87.153069	68.9973
126.078468	87.094475	68.5429
126.992081	87.067986	68.1678
127.912323	87.191391	67.6773
128.839233	87.325775	67.0743
129.772842	87.342133	66.2317
130.713242	87.326042	65.3457
131.660431	87.325996	64.6135
132.614502	87.325996	63.9080
133.575485	87.336052	63.1307
134.543427	87.326042	62.3893
135.518387	87.251839	61.7429
136.500412	87.165154	61.2407
137.489548	87.100105	61.0160
138.485855	87.066032	60.8763
139.489380	87.103203	60.6680
140.500168	87.152908	60.4067
141.518295	87.158440	60.0264
142.543793	87.153015	59.6200
143.576721	87.154182	59.2603
144.617142	87.153008	58.9416
145.665100	87.138969	58.6944
146.720642	87.133995	58.4835
147.783844	87.161781	58.3102
148.854752	87.206856	58.0957
149.933411	87.270905	57.7269
151.019897	87.325890	57.3070
152.114243	87.325264	56.9145
153.216522	87.325966	56.5121
154.326797	87.388641	56.1044
155.445114	87.456863	55.6441
156.571533	87.486649	55.0538
157.706116	87.499985	54.4284
158.848923	87.502693	53.8471
160.000000	87.500008	53.2823
161.159424	87.500000	52.7463
162.327255	87.499992	52.1973
163.503540	87.510864	51.5565
164.688354	87.500069	50.9462
165.881760	87.413223	50.4778
167.083801	87.326187	50.1059
168.294571	87.315117	49.8730
169.514099	87.325958	49.6267
170.742462	87.342232	49.1383
171.979736	87.326111	48.6750
173.225967	87.188858	48.4821
174.481232	87.066193	48.4021
175.745605	87.111649	48.4090
177.019119	87.185837	48.3503
178.301880	87.188225	47.9720
179.593933	87.153130	47.5520
180.895340	87.072166	47.2823
182.206177	86.974236	47.1710
183.526520	86.884453	47.2985
184.856430	86.806160	47.6380
186.195984	86.735931	48.2574
187.545227	86.718948	48.9524
188.904266	86.830109	49.5471
190.273132	86.977638	50.0220
191.651932	87.070129	50.3064
193.040726	87.179642	50.3791
194.439575	87.384476	50.1772
195.848572	87.576538	49.7555
197.267761	87.650192	49.0709
198.697250	87.673996	48.3556
200.137085	87.673698	47.8773
201.587372	87.673981	47.4908
203.048157	87.720421	47.1571
204.519531	87.775841	46.8220
206.001556	87.817780	46.3846
207.494324	87.846954	45.9460
208.997925	87.846947	45.5801
210.512405	87.846985	45.2697
212.037857	87.871101	45.0705
213.574371	87.918846	44.8367
215.122025	88.017746	44.4107
216.680893	88.107803	43.8815
218.251053	88.119827	43.2547
219.832581	88.108047	42.6257
221.425583	88.108002	42.1164
223.030121	88.108009	41.6552
224.646286	88.108002	41.2100
226.274170	88.108002	40.7811
227.913849	88.108002	40.3604
229.565399	88.108009	39.9410
231.228928	88.108002	39.5229
232.904510	88.108002	39.0784
234.592224	88.118866	38.5391
236.292191	88.108078	38.0272
238.004456	88.021248	37.6565
239.729126	87.934189	37.3856
241.466309	87.923111	37.2545
243.216080	87.933952	37.1314
244.978516	87.939430	36.8590
246.753738	87.934044	36.5518
248.541809	87.896065	36.2625
250.342850	87.847137	36.0226
252.156937	87.803558	35.8773
253.984161	87.760117	35.8390
255.824646	87.700882	35.9905
257.678467	87.674011	36.1647
259.545685	87.754890	36.2168
261.426483	87.846802	36.1593
263.320862	87.857826	35.9082
265.229004	87.847038	35.6098
267.150970	87.847000	35.4054
269.086853	87.847000	35.2285
271.036774	87.847000	35.0570
273.000824	87.847000	34.8964
274.979095	87.847000	34.7415
276.971710	87.847000	34.6034
278.978760	87.841568	34.5151
281.000336	87.846954	34.4074
283.036591	87.891861	34.2140
285.087585	87.933891	33.9579
287.153442	87.931412	33.6153
289.234283	87.910072	33.2599
291.330200	87.887520	32.9377
293.441284	87.847145	32.7094
295.567688	87.760178	32.6649
297.709503	87.680176	32.7636
299.866821	87.661194	33.0313
302.039795	87.673927	33.3570
304.228485	87.700195	33.6712
306.433044	87.759773	33.8737
308.653595	87.890053	33.8276
310.890228	88.020691	33.5730
313.143066	88.083572	33.0467
315.412231	88.107979	32.4227
317.697845	88.093079	31.8775
320.000000	88.062096	31.3435
322.318848	88.055862	30.7776
324.654510	88.021194	30.2814
327.007080	87.891197	29.9362
329.376709	87.746422	29.7612
331.763519	87.660484	29.8350
334.167603	87.589211	30.0601
336.589142	87.506432	30.3462
339.028198	87.430206	30.7486
341.484924	87.365776	31.3154
343.959473	87.326057	31.9800
346.451935	87.331749	32.6958
348.962463	87.364876	33.4509
351.491211	87.400909	34.2594
354.038239	87.479691	34.9980
356.603760	87.658783	35.5415
359.187866	87.861389	35.9072
361.790680	87.997955	36.1233
364.412354	88.162453	36.0338
367.053040	88.477501	35.4764
369.712860	88.770248	34.4956
372.391968	88.884705	32.9395
375.090454	88.889137	31.2357
377.808533	88.792023	29.7396
380.546265	88.619591	28.5240
383.303864	88.384346	27.8141
386.081451	88.135704	27.5063
388.879150	87.938934	27.6007
391.697144	87.759529	28.0074
394.535522	87.588257	28.5636
397.394501	87.413536	29.4866
400.274170	87.176094	30.9990
403.174744	87.009338	32.9273
406.096313	87.042397	35.3326
409.039062	87.231171	37.7309
412.003113	87.582214	39.7880
414.988647	88.070213	41.1104
417.995850	88.747169	41.0886
421.024811	89.388184	40.0339
424.075714	89.758392	37.8065
427.148743	89.935745	35.1585
430.244049	89.894814	32.7246
433.361786	89.714737	30.7273
436.502106	89.423943	29.7238
439.665161	89.149719	29.3404
442.851166	89.064240	29.5074
446.060242	89.062904	29.8599
449.292572	89.105705	29.9666
452.548340	89.167809	29.9533
455.827698	89.208450	29.7664
459.130798	89.235939	29.5178
462.457855	89.239319	29.2955
465.809021	89.236008	29.1175
469.184448	89.233551	29.0714
472.584381	89.250893	29.0352
476.008911	89.325737	28.9221
479.458252	89.409752	28.7108
482.932617	89.464798	28.3118
486.432159	89.496941	27.8435
489.957031	89.499847	27.3524
493.507477	89.473137	26.9669
497.083618	89.385895	26.8940
500.685699	89.323105	26.9477
504.313873	89.394386	27.0453
507.968323	89.496689	27.0791
511.649292	89.550354	26.8679
515.356934	89.591881	26.5482
519.091370	89.636803	26.1935
522.852966	89.669922	25.8153
526.641724	89.674881	25.4418
530.458008	89.670021	25.0941
534.301941	89.669998	24.8086
538.173706	89.669991	24.5677
542.073547	89.666191	24.3752
546.001648	89.669960	24.2036
549.958191	89.693344	24.0507
553.943420	89.730865	23.8438
557.957520	89.791122	23.4911
562.000671	89.843857	23.0476
566.073181	89.851074	22.5315
570.175171	89.844025	21.9640
574.306885	89.849373	21.3896
578.468567	89.844048	20.7563
582.660400	89.824570	19.9635
586.882568	89.758339	19.1994
591.135376	89.585785	18.6144
595.419006	89.383682	18.2250
599.733643	89.226349	18.1163
604.079590	89.063606	18.2313
608.456970	88.864594	18.4900
612.866089	88.643768	19.0426
617.307190	88.406631	19.9138
621.780457	88.149879	21.4018
626.286133	87.799217	23.9102
630.824463	87.572380	27.1502
635.395691	87.647751	31.4658
640.000000	88.072838	35.3575
644.637695	89.138657	37.3710
649.309021	90.293282	37.6891
654.014160	91.022392	35.5623
658.753418	91.491859	32.3517
663.527039	91.664337	29.1160
668.335205	91.644310	26.0397
673.178284	91.498863	23.7452
678.056396	91.303658	21.9651
682.969849	91.181221	20.6678
687.918945	91.058449	19.7576
692.903870	90.881165	19.1263
697.924927	90.712524	18.7797
702.982422	90.609108	18.7239
708.076477	90.538208	18.8513
713.207520	90.483780	19.0355
718.375732	90.451073	19.3377
723.581360	90.422386	19.8398
728.824707	90.450752	20.3563
734.106079	90.603127	20.8086
739.425720	90.821136	20.9532
744.783936	91.091034	20.4800
750.180908	91.344193	19.5073
755.617065	91.520119	17.8848
761.092529	91.580048	16.1133
766.607727	91.409348	14.6300
772.162903	91.174835	13.4843
777.758301	91.020668	12.9829
783.394287	90.904335	12.7864
789.071045	90.834999	12.6781
794.789001	90.799080	12.5884
800.548340	90.799988	12.3434
806.349487	90.796059	12.0411
812.192627	90.734268	11.6848
818.078125	90.651321	11.3889
824.006226	90.558563	11.3162
829.977295	90.480225	11.3269
835.991699	90.467400	11.3024
842.049622	90.451111	11.3377
848.151428	90.345901	11.4911
854.297485	90.250275	11.7578
860.488098	90.253708	12.2083
866.723572	90.300766	12.6744
873.004211	90.353432	13.0597
879.330322	90.446564	13.2170
885.702332	90.648148	12.9121
892.120483	90.822525	12.3076
898.585144	90.826218	11.3752
905.096680	90.747414	10.4570
911.655396	90.619484	9.8988
918.261597	90.466583	9.6672
924.915710	90.305412	9.9274
931.618042	90.191277	10.4259
938.368896	90.212547	11.0157
945.168762	90.287666	11.5374
952.017822	90.369637	11.7161
958.916504	90.440781	11.7490
965.865234	90.455559	11.7126
972.864319	90.451035	11.7019
979.914062	90.441635	11.8792
987.014954	90.450897	12.1200
994.167236	90.518135	12.3790
1001.371399	90.610641	12.5765
1008.627747	90.711090	12.5994
1015.936646	90.811592	12.5027
1023.298584	90.899872	12.2751
1030.713867	90.971802	12.0039
1038.182739	91.010376	11.7617
1045.705933	91.041855	11.5815
1053.283447	91.079483	11.5612
1060.916016	91.145622	11.5790
1068.603882	91.268372	11.6280
1076.347412	91.444168	11.4584
1084.147095	91.713730	10.7908
1092.003296	91.972229	9.7014
1099.916382	92.123871	8.0425
1107.886841	92.179985	6.2126
1115.915039	92.091240	4.5534
1124.001343	91.944572	3.0938
1132.146362	91.811111	2.0747
1140.350342	91.691406	1.1973
1148.613770	91.648460	0.1733
1156.937134	91.565544	-0.7952
1165.320801	91.314728	-1.7217
1173.765137	90.989555	-2.2411
1182.270752	90.621628	-1.9773
1190.838013	90.272324	-0.9688
1199.467285	89.964378	1.1224
1208.159180	89.844948	3.5394
1216.913940	90.154167	5.7804
1225.732178	90.639084	7.4028
1234.614380	91.127625	7.6929
1243.560913	91.609268	6.9636
1252.572266	92.050125	5.1220
1261.648926	92.351173	2.6827
1270.791382	92.350784	0.0161
1280.000000	92.200790	-2.5326
1289.275391	91.992188	-4.4094
1298.618042	91.751022	-5.8687
1308.028320	91.546364	-6.9717
1317.506836	91.338913	-7.7563
1327.054077	91.094994	-8.2599
1336.670410	90.864830	-8.5422
1346.356567	90.706413	-8.6631
1356.112793	90.564529	-8.6602
1365.939697	90.391998	-8.6177
1375.837891	90.220688	-8.4559
1385.807739	90.063232	-8.0825
1395.849854	89.931458	-7.6179
1405.964844	89.861053	-7.1945
1416.152954	89.793297	-6.6881
1426.415039	89.640732	-5.9704
1436.751465	89.523293	-5.1821
1447.162720	89.579285	-4.4015
1457.649414	89.669670	-3.6907
1468.212158	89.668343	-3.1763
1478.851440	89.669930	-2.7426
1489.567871	89.744400	-2.2793
1500.361816	89.843590	-1.8913
1511.234131	89.926788	-1.5981
1522.185059	90.039391	-1.5495
1533.215454	90.262131	-1.9681
1544.325806	90.450378	-2.6575
1555.516602	90.439857	-3.5696
1566.788574	90.365364	-4.4755
1578.142090	90.317261	-5.0594
1589.578003	90.270187	-5.5302
1601.096680	90.235596	-6.0105
1612.698975	90.191231	-6.4512
1624.385254	90.110565	-6.8525
1636.156250	90.017418	-7.1857
1648.012451	89.933479	-7.4343
1659.954590	89.839378	-7.5618
1671.983398	89.711197	-7.5404
1684.099243	89.583504	-7.3273
1696.302856	89.469955	-6.7848
1708.594971	89.410103	-6.1678
1720.976196	89.480942	-5.6722
1733.447144	89.584549	-5.3430
1746.008423	89.638252	-5.3546
1758.660645	89.669914	-5.5122
1771.404663	89.675316	-5.6719
1784.240967	89.670029	-5.8492
1797.170288	89.669998	-6.0011
1810.193359	89.669998	-6.1624
1823.310791	89.669998	-6.3444
1836.523193	89.669998	-6.5759
1849.831421	89.680489	-6.9226
1863.236084	89.670120	-7.2854
1876.737793	89.593582	-7.5966
1890.337524	89.502388	-7.8253
1904.035645	89.438240	-7.8824
1917.833008	89.387184	-7.8751
1931.730469	89.352814	-7.8851
1945.728638	89.323135	-7.9029
1959.828125	89.286163	-7.9550
1974.029907	89.245193	-8.0138
1988.334473	89.198212	-8.0536
2002.742798	89.149208	-8.0938
2017.255493	89.110489	-8.1799
2031.873291	89.055275	-8.2081
2046.597168	88.936630	-8.0659
