"Directivity Index"			
"Sound Power DI"		"Early Reflections DI"	
"Frequency [Hz]"	"[dB] Directivity Index "	"Frequency [Hz]"	"[dB] Directivity Index "
20.5078	0.178636	20.5078	0.123111
21.9727	0.267197	21.9727	0.157031
23.4375	0.301502	23.4375	0.168085
24.9023	0.363466	24.9023	0.182576
26.3672	0.180042	26.3672	0.108694
27.832	0.190283	27.832	0.112315
29.2969	0.260904	29.2969	0.135492
30.7617	0.327097	30.7617	0.157309
32.2266	0.243223	32.2266	0.132276
33.6914	0.248326	33.6914	0.132376
35.1562	0.27463	35.1562	0.140833
36.6211	0.24746	36.6211	0.131021
38.0859	0.203643	38.0859	0.115331
39.5508	0.208957	39.5508	0.119154
41.0156	0.184359	41.0156	0.116127
42.4805	0.271596	42.4805	0.142955
43.9453	0.292892	43.9453	0.149135
45.4102	0.271291	45.4102	0.139676
46.875	0.303538	46.875	0.150545
48.3398	0.314162	48.3398	0.15527
51.2695	0.290089	51.2695	0.148701
52.7344	0.264994	52.7344	0.140945
54.1992	0.24358	54.1992	0.133793
55.6641	0.25159	55.6641	0.138458
58.5938	0.348615	58.5938	0.174402
60.0586	0.343472	60.0586	0.174168
62.9883	0.381957	62.9883	0.183689
64.4531	0.348133	64.4531	0.17175
67.3828	0.289533	67.3828	0.15382
68.8477	0.259522	68.8477	0.143539
71.7773	0.24881	71.7773	0.140995
74.707	0.256101	74.707	0.14622
77.6367	0.24359	77.6367	0.142776
79.1016	0.272151	79.1016	0.156541
82.0312	0.32005	82.0312	0.175415
84.9609	0.316048	84.9609	0.17442
87.8906	0.28269	87.8906	0.163563
90.8203	0.337083	90.8203	0.190756
95.2148	0.319176	95.2148	0.184848
98.1445	0.332431	98.1445	0.197769
101.074	0.30981	101.074	0.18827
105.469	0.358709	105.469	0.20593
108.398	0.470472	108.398	0.256733
112.793	0.456994	112.793	0.247172
117.188	0.550826	117.188	0.299331
120.117	0.67145	120.117	0.327159
124.512	0.60952	124.512	0.304605
128.906	0.512272	128.906	0.273229
133.301	0.540514	133.301	0.288592
139.16	0.607993	139.16	0.324585
143.555	0.656493	143.555	0.347223
147.949	0.604232	147.949	0.329724
153.809	0.692873	153.809	0.375637
159.668	0.647955	159.668	0.359488
165.527	0.638097	165.527	0.367701
171.387	0.711291	171.387	0.404298
177.246	0.895629	177.246	0.492569
183.105	0.978377	183.105	0.489366
188.965	0.905543	188.965	0.480775
196.289	1.03728	196.289	0.536381
203.613	1.28244	203.613	0.61956
210.938	1.18847	210.938	0.566503
218.262	1.09388	218.262	0.579424
225.586	1.34355	225.586	0.647296
232.91	1.47186	232.91	0.709257
241.699	1.45239	241.699	0.665596
250.488	1.78722	250.488	0.853965
259.277	1.67561	259.277	0.803192
268.066	1.83122	268.066	0.884339
276.855	1.78308	276.855	0.745303
287.109	1.79491	287.109	0.73568
297.363	2.13055	297.363	0.932529
307.617	2.0993	307.617	0.90708
319.336	2.24563	319.336	0.983476
329.59	2.03339	329.59	0.811558
341.309	2.34357	341.309	1.09136
353.027	2.43077	353.027	0.977893
366.211	2.78287	366.211	1.10776
379.395	2.45666	379.395	0.871556
392.578	2.4153	392.578	0.835836
405.762	2.74794	405.762	1.07786
420.41	2.49435	420.41	0.922617
435.059	2.76028	435.059	1.02758
451.172	2.88756	451.172	0.896109
465.82	3.00011	465.82	1.01331
483.398	2.80924	483.398	0.887378
499.512	3.09164	499.512	1.13185
517.09	2.8933	517.09	1.12049
536.133	3.8698	536.133	1.57356
555.176	3.68849	555.176	1.26415
574.219	3.5	574.219	1.05203
594.727	4.09231	594.727	1.558
615.234	3.7806	615.234	1.34561
637.207	3.98018	637.207	1.37579
659.18	4.08595	659.18	1.48423
682.617	4.08843	682.617	1.51326
707.52	4.28749	707.52	1.53398
732.422	4.42073	732.422	1.67842
757.324	4.63184	757.324	1.73214
785.156	4.83303	785.156	1.87495
811.523	5.10037	811.523	2.03005
840.82	5.55219	840.82	2.28652
870.117	5.81592	870.117	2.3194
900.879	5.82503	900.879	2.27017
933.105	6.08887	933.105	2.43402
965.332	6.05903	965.332	2.36371
1,000.49	6.07419	1,000.49	2.30413
1,035.64	5.81408	1,035.64	2.14566
1,072.27	5.73232	1,072.27	2.12186
1,108.89	5.86054	1,108.89	2.2693
1,148.44	5.67403	1,148.44	2.1737
1,189.45	5.63631	1,189.45	2.29028
1,230.47	5.8101	1,230.47	2.41631
1,274.41	5.88703	1,274.41	2.49957
1,319.82	5.95325	1,319.82	2.51663
1,366.7	5.79989	1,366.7	2.48114
1,413.57	5.51163	1,413.57	2.32236
1,463.38	5.03004	1,463.38	2.16809
1,516.11	5.06897	1,516.11	2.1607
1,568.85	4.72838	1,568.85	2.01293
1,624.51	5.27175	1,624.51	2.32923
1,681.64	5.45134	1,681.64	2.43718
1,741.7	5.57887	1,741.7	2.38899
1,803.22	5.24651	1,803.22	2.57147
1,866.21	5.08672	1,866.21	2.25639
1,932.13	5.28737	1,932.13	2.32168
1,999.51	5.55165	1,999.51	2.39759
2,069.82	5.72838	2,069.82	2.45076
2,143.07	5.45657	2,143.07	2.31026
2,219.24	4.79712	2,219.24	2.07356
2,296.88	4.20472	2,296.88	1.6333
2,378.91	4.45874	2,378.91	1.79136
2,462.4	4.87866	2,462.4	1.96739
2,548.83	4.77021	2,548.83	1.97254
2,639.65	3.90682	2,639.65	1.33872
2,731.93	3.80358	2,731.93	1.10823
2,828.61	4.42275	2,828.61	1.50828
2,928.22	4.75006	2,928.22	1.72225
3,030.76	4.88221	3,030.76	1.77851
3,137.7	4.8594	3,137.7	1.71433
3,249.02	4.98622	3,249.02	1.73195
3,363.28	5.43861	3,363.28	2.01675
3,481.93	5.55747	3,481.93	2.1485
3,604.98	5.79787	3,604.98	2.31744
3,732.42	6.44589	3,732.42	2.72528
3,864.26	6.23476	3,864.26	2.67202
4,000.49	6.70149	4,000.49	2.81397
4,141.11	7.40383	4,141.11	3.1778
4,287.6	7.39934	4,287.6	3.28683
4,438.48	7.10511	4,438.48	3.24777
4,595.21	7.07626	4,595.21	3.22952
4,756.35	7.36213	4,756.35	3.17721
4,924.8	7.04377	4,924.8	2.89061
5,097.66	7.27759	5,097.66	3.08771
5,277.83	6.73801	5,277.83	2.785
5,463.87	6.83455	5,463.87	2.7403
5,657.23	6.57555	5,657.23	2.52874
5,856.45	6.557	5,856.45	2.60003
6,062.99	6.69115	6,062.99	2.67464
6,276.86	6.6563	6,276.86	2.59468
6,498.05	6.86275	6,498.05	2.67515
6,726.56	6.63509	6,726.56	2.50635
6,963.87	6.5635	6,963.87	2.32492
7,209.96	6.63731	7,209.96	2.4184
7,464.84	6.57429	7,464.84	2.48943
7,727.05	6.84012	7,727.05	2.68159
7,999.51	6.79922	7,999.51	2.64052
8,282.23	7.36227	8,282.23	2.94633
8,573.73	7.70557	8,573.73	3.19204
8,876.95	7.91827	8,876.95	3.24689
9,188.96	7.84495	9,188.96	3.25533
9,514.16	7.89991	9,514.16	3.29877
9,849.61	8.00045	9,849.61	3.37579
10,196.8	8.27653	10,196.8	3.52829
10,555.7	8.45271	10,555.7	3.64916
10,927.7	8.52198	10,927.7	3.68131
11,313	8.56469	11,313	3.77056
11,712.9	8.56823	11,712.9	3.7979
12,126	8.70822	12,126	3.9061
12,553.7	8.55498	12,553.7	3.83353
12,996.1	8.54582	12,996.1	3.90304
13,454.6	8.55278	13,454.6	3.92983
13,929.2	8.79887	13,929.2	4.0829
14,419.9	9.3735	14,419.9	4.35765
14,928.2	9.73555	14,928.2	4.49978
15,455.6	9.80683	15,455.6	4.48365
16,000.5	9.72596	16,000.5	4.34273
16,564.5	9.93769	16,564.5	4.41082
17,148.9	9.94928	17,148.9	4.36906
17,752.4	9.60342	17,752.4	4.11055
18,379.4	9.55051	18,379.4	4.04394
19,026.9	9.46862	19,026.9	3.93696
19,697.8	8.89288	19,697.8	3.57873
19,999.5	8.51931	19,999.5	3.38319
