* Measurement data measured by REW V5.20 Beta 53
* Source: C:\Users\Napie\Music\REW\Top Speakers\New Folder\13-SP.txt
* Format: Comma/Tab/Space delimited data
* Dated: May 26, 2020 3:31:21 PM
* REW Settings:
*  C-weighting compensation: Off
*  Target level: 75.0 dB
* Note: ; Measurement imported from C:\Users\Napie\Music\REW\Top Speakers\New Folder\13-SP.txt Format: Comma/Tab/Space delimited data 623 values loaded, 5 Hz to 39,792 Hz log spaced 
* Measurement: 13-SP
* Smoothing: None
* Frequency Step: 1/96 octave
* Start Frequency: 20.000 Hz
*
* Freq(Hz)	SPL(dB)	Phase(degrees)
20.000000	57.223850	178.6774
20.144928	57.380852	178.2103
20.290907	57.537857	177.7274
20.437943	57.695133	177.2261
20.586044	57.850891	176.7044
20.735220	58.004120	176.1562
20.885475	58.152828	175.5907
21.036821	58.294209	175.0164
21.189262	58.429836	174.4287
21.342808	58.570526	173.7747
21.497467	58.685886	173.2076
21.653246	58.715466	172.8909
21.810154	58.759903	172.7431
21.968201	58.915577	172.8489
22.127390	59.135731	172.8721
22.287735	59.441719	172.4059
22.449242	59.724804	171.7446
22.611917	59.831860	171.0268
22.775772	59.916878	170.3148
22.940815	60.115097	169.7706
23.107054	60.330727	169.2337
23.274498	60.497089	168.5659
23.443153	60.660770	167.8619
23.613033	60.840672	167.2574
23.784142	61.053799	166.4938
23.956491	61.370884	165.2811
24.130091	61.649738	163.8467
24.304947	61.725395	162.2366
24.481071	61.736004	160.7059
24.658470	61.763634	159.6313
24.837156	61.812904	158.6953
25.017136	61.942333	157.6880
25.198421	62.071884	156.6591
25.381020	62.116844	155.5730
25.564941	62.148964	154.4760
25.750195	62.231716	153.4092
25.936790	62.305927	152.3523
26.124741	62.319809	151.2737
26.314051	62.314014	150.2494
26.504732	62.314499	149.3633
26.696796	62.313999	148.5609
26.890253	62.313999	147.8164
27.085112	62.313999	147.1277
27.281382	62.313999	146.4857
27.479073	62.313999	145.8868
27.678198	62.313999	145.3250
27.878765	62.313999	144.7997
28.080786	62.313999	144.3088
28.284271	62.313999	143.8516
28.489231	62.313999	143.4272
28.695675	62.313995	143.0335
28.903616	62.313999	142.6676
29.113064	62.313999	142.3304
29.324028	62.313999	142.0223
29.536524	62.314003	141.7433
29.750557	62.313999	141.4941
29.966141	62.313999	141.2732
30.183289	62.313999	141.0790
30.402010	62.313999	140.9131
30.622314	62.313999	140.7768
30.844217	62.313999	140.6711
31.067726	62.313999	140.5979
31.292856	62.313999	140.5571
31.519617	62.313999	140.5480
31.748020	62.313999	140.5739
31.978081	62.313999	140.6362
32.209808	62.313999	140.7398
32.443211	62.313999	140.8885
32.678310	62.313999	141.0887
32.915108	62.313999	141.3398
33.153625	62.313999	141.6675
33.393871	62.307064	142.1153
33.635857	62.313969	142.6302
33.879597	62.366039	143.1595
34.125103	62.424927	143.7452
34.372387	62.441658	144.4278
34.621464	62.478909	145.1589
34.872345	62.599495	145.9507
35.125042	62.754799	146.6612
35.379574	62.932423	147.0578
35.635948	63.085846	147.4225
35.894180	63.112717	148.0231
36.154285	63.167850	148.6730
36.416275	63.424362	149.3417
36.680161	63.726540	149.8275
36.945961	63.966599	149.8136
37.213688	64.171722	149.6133
37.483353	64.314346	149.4724
37.754974	64.451782	149.2813
38.028561	64.659767	149.0057
38.304131	64.855766	148.6635
38.581699	64.962753	148.2164
38.861279	65.038902	147.7996
39.142883	65.119453	147.5519
39.426529	65.196892	147.4251
39.712231	65.266273	147.4455
40.000000	65.354851	147.5269
40.289856	65.497772	147.6320
40.581814	65.666748	147.6391
40.875885	65.864662	147.3373
41.172089	66.032791	146.9556
41.470440	66.071327	146.6830
41.770950	66.105911	146.4314
42.073643	66.278030	146.1678
42.378525	66.441811	145.9133
42.685616	66.456200	145.6227
42.994934	66.446007	145.4621
43.306492	66.494461	145.6855
43.620308	66.586823	145.9855
43.936401	66.761642	146.1004
44.254780	66.941734	146.1440
44.575470	67.030235	146.1514
44.898483	67.123825	146.1002
45.223835	67.318069	146.0120
45.551544	67.520729	145.7895
45.881630	67.669624	145.2488
46.214108	67.768890	144.6699
46.548996	67.776764	144.2892
46.886307	67.768997	144.0562
47.226067	67.828339	144.0071
47.568283	67.892899	144.1157
47.912983	67.900604	144.3961
48.260181	67.933891	144.7634
48.609894	68.080605	145.1879
48.962143	68.263710	145.5176
49.316940	68.439552	145.5311
49.674313	68.594780	145.4053
50.034271	68.698051	145.1794
50.396843	68.759941	145.0480
50.762039	68.750900	145.2729
51.129883	68.759941	145.6921
51.500389	68.893349	146.2844
51.873581	69.070671	146.8870
52.249481	69.238571	147.3187
52.628101	69.420670	147.6126
53.009464	69.634811	147.7558
53.393593	69.845657	147.7073
53.780506	70.044334	147.3094
54.170223	70.168884	146.8986
54.562763	70.125526	146.6448
54.958145	70.000252	146.8921
55.356396	69.840782	147.8953
55.757530	69.669281	150.0912
56.161572	69.327713	154.6372
56.568542	69.403305	159.6290
56.978462	70.701286	164.0570
57.391350	72.415688	166.3765
57.807232	74.113380	163.8647
58.226128	75.471161	159.0366
58.648056	75.824089	153.1439
59.073048	75.764290	147.2920
59.501114	75.657547	143.3552
59.932281	75.526192	140.2769
60.366577	75.555725	137.7274
60.804020	75.619888	135.3830
61.244629	75.678947	132.6490
61.688435	75.657143	130.0093
62.135452	75.402191	127.7662
62.585712	75.103493	125.8779
63.039234	74.961792	124.3682
63.496040	74.793358	123.3402
63.956161	74.387085	122.9657
64.419617	74.022522	123.0635
64.886421	73.987762	123.6328
65.356621	74.049866	124.3029
65.830215	74.041451	124.6383
66.307251	74.049957	124.8287
66.787743	74.132332	124.9127
67.271713	74.214874	124.9130
67.759193	74.225311	124.8147
68.250206	74.215019	124.7690
68.744774	74.203941	124.9671
69.242928	74.214943	125.2754
69.744690	74.285454	125.6652
70.250084	74.391754	126.0104
70.759148	74.534027	126.1501
71.271896	74.677757	126.1601
71.788361	74.783890	126.0108
72.308571	74.865868	125.8602
72.832550	74.903557	125.9067
73.360321	74.958855	126.0008
73.891922	75.112549	126.0939
74.427376	75.288666	126.0792
74.966705	75.440735	125.7556
75.509949	75.559814	125.3567
76.057121	75.599960	125.0532
76.608261	75.625931	124.8373
77.163399	75.699158	124.7864
77.722557	75.784828	124.8159
78.285767	75.861778	124.8688
78.853058	75.949799	124.9388
79.424461	76.068573	125.0046
80.000000	76.197746	125.0549
80.579712	76.315140	125.0928
81.163628	76.445732	125.0542
81.751770	76.629257	124.8462
82.344177	76.799690	124.5577
82.940880	76.881371	124.2188
83.541901	76.941887	123.9135
84.147285	77.029503	123.7820
84.757050	77.127800	123.6872
85.371231	77.252327	123.4702
85.989868	77.354843	123.3331
86.612984	77.345963	123.4859
87.240616	77.363884	123.7484
87.872803	77.573029	124.0204
88.509560	77.807549	124.2686
89.150940	77.906494	124.4194
89.796967	78.016708	124.4939
90.447670	78.276611	124.5247
91.103088	78.553467	124.4034
91.763260	78.744034	123.9449
92.428215	78.895737	123.4100
93.097992	79.009911	123.0410
93.772614	79.122749	122.7136
94.452133	79.296776	122.3372
95.136566	79.454727	122.0494
95.825966	79.489243	122.0137
96.520363	79.551781	122.0649
97.219788	79.815140	122.1205
97.924286	80.110420	122.0942
98.633881	80.287544	121.8262
99.348625	80.459641	121.4528
100.068542	80.707230	121.1310
100.793686	80.980316	120.6415
101.524078	81.276031	119.7322
102.259766	81.532455	118.6548
103.000778	81.651421	117.5627
103.747162	81.737823	116.5040
104.498962	81.885841	115.6025
105.256203	82.031746	114.7825
106.018929	82.123764	114.0134
106.787186	82.218796	113.2824
107.561012	82.372902	112.5905
108.340446	82.537750	111.8662
109.125526	82.681648	111.0027
109.916290	82.809784	110.1056
110.712791	82.909569	109.2519
111.515060	83.002808	108.4227
112.323143	83.114525	107.6251
113.137085	83.222786	106.8566
113.956924	83.309311	106.0957
114.782700	83.387810	105.4056
115.614464	83.454903	104.8850
116.452255	83.543800	104.4069
117.296112	83.705109	103.8933
118.146095	83.883636	103.2934
119.002228	84.038719	102.4885
119.864563	84.176659	101.6034
120.733154	84.286263	100.7087
121.608040	84.379814	99.8497
122.489258	84.458000	99.1195
123.376869	84.544762	98.4456
124.270905	84.671844	97.8142
125.171425	84.816742	97.1413
126.078468	84.976883	96.2921
126.992081	85.123718	95.4039
127.912323	85.200531	94.6050
128.839233	85.288780	93.7896
129.772842	85.482597	92.9249
130.713242	85.688614	91.9182
131.660431	85.842628	90.5726
132.614502	85.949768	89.1678
133.575485	85.966171	87.9526
134.543427	85.974960	86.8280
135.518387	86.070877	85.8105
136.500412	86.176811	84.7989
137.489548	86.241516	83.6420
138.485855	86.280945	82.5047
139.489380	86.286438	81.4902
140.500168	86.281006	80.6336
141.518295	86.269798	80.0787
142.543793	86.297844	79.6012
143.576721	86.445915	79.0211
144.617142	86.612656	78.3466
145.665100	86.702126	77.4731
146.720642	86.776794	76.5614
147.783844	86.860435	75.8183
148.854752	86.974640	75.0043
149.933411	87.183647	73.9133
151.019897	87.383575	72.6463
152.114243	87.459732	71.2052
153.216522	87.506882	69.6843
154.326797	87.603943	68.1906
155.445114	87.685860	66.6884
156.571533	87.697197	65.1528
157.706116	87.686020	63.6553
158.848923	87.685997	62.2916
160.000000	87.685997	60.9652
161.159424	87.696304	59.5726
162.327255	87.686058	58.2279
163.503540	87.603699	57.0328
164.688354	87.521156	55.9233
165.881760	87.521049	54.8671
167.083801	87.521034	53.8696
168.294571	87.438232	52.9177
169.514099	87.355171	52.0350
170.742462	87.344620	51.2794
171.979736	87.354965	50.5350
173.225967	87.353378	49.6967
174.481232	87.354988	48.7882
175.745605	87.374710	47.7759
177.019119	87.381012	46.7275
178.301880	87.328773	45.7173
179.593933	87.273125	44.6916
180.895340	87.282051	43.6013
182.206177	87.273071	42.5056
183.526520	87.161987	41.3969
184.856430	87.020332	40.4260
186.195984	86.882980	39.8298
187.545227	86.777191	39.3441
188.904266	86.777290	38.7498
190.273132	86.777054	38.1435
191.651932	86.658531	37.5245
193.040726	86.529327	36.9684
194.439575	86.478416	36.5923
195.848572	86.446083	36.2719
197.267761	86.394447	35.8995
198.697250	86.345108	35.5388
200.137085	86.306770	35.2365
201.587372	86.281036	34.9387
203.048157	86.276993	34.6065
204.519531	86.280983	34.2402
206.001556	86.275818	33.8512
207.494324	86.280968	33.3663
208.997925	86.337883	32.6510
210.512405	86.364014	31.8987
212.037857	86.245514	31.2599
213.574371	86.116272	30.7331
215.122025	86.100487	30.4340
216.680893	86.115936	30.1619
218.251053	86.115997	29.7279
219.832581	86.115997	29.2086
221.425583	86.122238	28.6037
223.030121	86.116043	27.9576
224.646286	86.073578	27.2977
226.274170	86.016159	26.6765
227.913849	85.952652	26.1840
229.565399	85.897125	25.7351
231.228928	85.876350	25.2855
232.904510	85.861053	24.8015
234.592224	85.835846	24.1777
236.292191	85.785179	23.5834
238.004456	85.661079	23.1901
239.729126	85.545258	22.8887
241.466309	85.534813	22.6398
243.216080	85.537018	22.4037
244.978516	85.467705	22.1089
246.753738	85.396187	21.8118
248.541809	85.380402	21.5640
250.342850	85.372032	21.3107
252.156937	85.334244	20.9886
253.984161	85.289124	20.6738
255.824646	85.242928	20.4463
257.678467	85.207069	20.2335
259.545685	85.201874	20.0073
261.426483	85.206985	19.7129
263.320862	85.217369	19.2455
265.229004	85.207077	18.7264
267.150970	85.134560	18.2205
269.086853	85.041275	17.7950
271.036774	84.953560	17.5681
273.000824	84.876198	17.4521
274.979095	84.824310	17.4209
276.971710	84.793053	17.4061
278.978760	84.787804	17.3353
281.000336	84.792984	17.1955
283.036591	84.798119	16.9288
285.087585	84.793037	16.5980
287.153442	84.762497	16.2140
289.234283	84.711166	15.8748
291.330200	84.623116	15.7133
293.441284	84.545174	15.6371
295.567688	84.534615	15.6252
297.709503	84.544960	15.5942
299.866821	84.544998	15.4418
302.039795	84.544998	15.2029
304.228485	84.555298	14.8424
306.433044	84.545082	14.4680
308.653595	84.464622	14.1847
310.890228	84.380203	13.9666
313.143066	84.357964	13.8535
315.412231	84.350021	13.7523
317.697845	84.327377	13.5544
320.000000	84.298096	13.3446
322.318848	84.253380	13.1967
324.654510	84.215088	13.0366
327.007080	84.220100	12.7921
329.376709	84.215057	12.5288
331.763519	84.138702	12.2732
334.167603	84.050262	12.0715
336.589142	83.996826	12.0132
339.028198	83.955116	11.9960
341.484924	83.920601	11.9301
343.959473	83.883118	11.8661
346.451935	83.826607	11.8154
348.962463	83.764168	11.8099
351.491211	83.702919	11.8893
354.038239	83.645157	12.0425
356.603760	83.592201	12.2875
359.187866	83.554085	12.5760
361.790680	83.548309	12.8633
364.412354	83.553986	13.1572
367.053040	83.545448	13.4661
369.712860	83.553932	13.7442
372.391968	83.615349	13.9610
375.090454	83.690796	14.0778
377.808533	83.749771	14.0277
380.546265	83.801865	13.8656
383.303864	83.849815	13.6143
386.081451	83.883926	13.3049
388.879150	83.891312	12.9661
391.697144	83.884048	12.6290
394.535522	83.869492	12.3380
397.394501	83.849068	12.0827
400.274170	83.823380	11.8901
403.174744	83.802055	11.6927
406.096313	83.813301	11.3839
409.039062	83.802101	11.1057
412.003113	83.689644	10.9718
414.988647	83.574310	10.9637
417.995850	83.549759	11.1531
421.024811	83.553970	11.3833
424.075714	83.552750	11.4971
427.148743	83.553993	11.5668
430.244049	83.554001	11.6131
433.361786	83.554001	11.6379
436.502106	83.554001	11.6540
439.665161	83.554001	11.6500
442.851166	83.559181	11.5980
446.060242	83.554039	11.5610
449.292572	83.512642	11.5950
452.548340	83.471107	11.6956
455.827698	83.460625	11.9141
459.130798	83.470932	12.1403
462.457855	83.512360	12.2604
465.809021	83.553894	12.3338
469.184448	83.557449	12.3638
472.584381	83.554008	12.4069
476.008911	83.559402	12.5571
479.458252	83.581886	12.7046
482.932617	83.646835	12.7727
486.432159	83.718781	12.7532
489.957031	83.768936	12.5797
493.507477	83.801933	12.3508
497.083618	83.807198	12.1423
500.685699	83.802025	11.9586
504.313873	83.802002	11.8376
507.968323	83.802010	11.7522
511.649292	83.802002	11.6860
515.356934	83.802002	11.6440
519.091370	83.802002	11.6217
522.852966	83.802002	11.6329
526.641724	83.798378	11.6971
530.458008	83.801971	11.7946
534.301941	83.823463	11.9293
538.173706	83.859856	12.0487
542.073547	83.915482	12.1058
546.001648	83.978775	12.0883
549.958191	84.043419	11.9449
553.943420	84.097855	11.7446
557.957520	84.118889	11.5443
562.000671	84.134941	11.3298
566.073181	84.177170	11.1060
570.175171	84.214897	10.8718
574.306885	84.220001	10.6143
578.468567	84.215019	10.3738
582.660400	84.216057	10.1928
586.882568	84.215004	10.0534
591.135376	84.209396	9.9316
595.419006	84.198051	9.8870
599.733643	84.164909	10.0031
604.079590	84.151970	10.1843
608.456970	84.211548	10.3927
612.866089	84.297684	10.5377
617.307190	84.384209	10.4733
621.780457	84.462761	10.3275
626.286133	84.498695	10.2156
630.824463	84.544792	10.0338
635.395691	84.673676	9.6953
640.000000	84.792679	9.2606
644.637695	84.803337	8.7368
649.309021	84.793022	8.1988
654.014160	84.834343	7.7504
658.753418	84.875877	7.3145
663.527039	84.881195	6.8299
668.335205	84.876022	6.3496
673.178284	84.875999	5.9266
678.056396	84.875999	5.5015
682.969849	84.886299	4.9974
687.918945	84.876091	4.5166
692.903870	84.803665	4.1018
697.924927	84.711319	3.8555
702.982422	84.612106	3.9751
708.076477	84.553093	4.2201
713.207520	84.616692	4.4332
718.375732	84.710670	4.5558
723.581360	84.761734	4.4047
728.824707	84.792923	4.1976
734.106079	84.782654	4.1523
739.425720	84.792877	4.0934
744.783936	84.912529	3.9214
750.180908	85.040588	3.6204
755.617065	85.087212	3.0847
761.092529	85.104973	2.4832
766.607727	85.117477	1.9685
772.162903	85.123978	1.4867
777.758301	85.128983	1.0555
783.394287	85.139938	0.6096
789.071045	85.179184	0.0670
794.789001	85.206947	-0.5059
800.548340	85.171585	-1.0575
806.349487	85.130119	-1.6240
812.192627	85.151939	-2.2607
818.078125	85.150108	-2.8610
824.006226	85.021698	-3.3426
829.977295	84.881432	-3.6841
835.991699	84.834984	-3.7944
842.049622	84.810081	-3.8010
848.151428	84.756256	-3.8201
854.297485	84.711128	-3.7982
860.488098	84.697372	-3.6790
866.723572	84.710892	-3.5852
873.004211	84.767387	-3.6315
879.330322	84.829796	-3.7892
885.702332	84.860359	-4.0935
892.120483	84.875969	-4.4666
898.585144	84.884056	-4.8586
905.096680	84.876068	-5.2198
911.655396	84.834671	-5.4797
918.261597	84.793121	-5.6505
924.915710	84.782997	-5.6989
931.618042	84.792931	-5.6911
938.368896	84.815491	-5.6459
945.168762	84.869720	-5.6736
952.017822	84.991936	-5.8942
958.916504	85.123528	-6.2991
965.865234	85.208473	-6.9510
972.864319	85.273781	-7.7559
979.914062	85.332191	-8.6400
987.014954	85.371895	-9.6022
994.167236	85.384003	-10.6329
1001.371399	85.372086	-11.6842
1008.627747	85.334816	-12.7141
1015.936646	85.278275	-13.6960
1023.298584	85.200737	-14.5610
1030.713867	85.124222	-15.3943
1038.182739	85.087395	-16.2726
1045.705933	85.039276	-17.1562
1053.283447	84.926758	-18.0581
1060.916016	84.793587	-18.8966
1068.603882	84.664658	-19.5543
1076.347412	84.545456	-20.1496
1084.147095	84.455933	-20.7344
1092.003296	84.377266	-21.3956
1099.916382	84.312790	-22.2863
1107.886841	84.215515	-23.2609
1115.915039	84.016174	-24.2206
1124.001343	83.783852	-25.1746
1132.146362	83.598251	-26.1251
1140.350342	83.361076	-26.9958
1148.613770	82.992531	-27.8907
1156.937134	82.514259	-28.2710
1165.320801	81.851494	-27.5493
1173.765137	81.214554	-25.9648
1182.270752	80.828842	-23.4238
1190.838013	80.579781	-20.3503
1199.467285	80.403069	-17.0682
1208.159180	80.366814	-13.7916
1216.913940	80.567200	-10.8483
1225.732178	80.858871	-8.2199
1234.614380	81.069992	-5.8939
1243.560913	81.371582	-4.1741
1252.572266	81.996414	-3.4565
1261.648926	82.593895	-3.4577
1270.791382	82.789825	-4.1783
1280.000000	82.877686	-5.1541
1289.275391	83.065483	-5.8099
1298.618042	83.247299	-6.4691
1308.028320	83.375381	-7.3058
1317.506836	83.477600	-8.2070
1327.054077	83.564224	-9.0922
1336.670410	83.641708	-10.0322
1346.356567	83.730255	-11.0824
1356.112793	83.798805	-12.2126
1365.939697	83.814751	-13.4233
1375.837891	83.802101	-14.6777
1385.807739	83.784637	-15.9648
1395.849854	83.731300	-17.2092
1405.964844	83.599693	-18.3300
1416.152954	83.446564	-19.3306
1426.415039	83.328575	-20.1724
1436.751465	83.205498	-20.9014
1447.162720	83.046844	-21.5653
1457.649414	82.878685	-22.1210
1468.212158	82.715683	-22.5116
1478.851440	82.562553	-22.8239
1489.567871	82.434219	-23.1014
1500.361816	82.314461	-23.4196
1511.234131	82.210617	-23.9369
1522.185059	82.066795	-24.4489
1533.215454	81.799194	-24.8279
1544.325806	81.497345	-24.9958
1555.516602	81.236053	-24.8050
1566.788574	80.979088	-24.3375
1578.142090	80.707260	-23.6588
1589.578003	80.442093	-22.6759
1601.096680	80.175011	-21.2273
1612.698975	79.977608	-19.5801
1624.385254	79.954224	-17.9031
1636.156250	79.999718	-16.3364
1648.012451	80.030411	-15.0852
1659.954590	80.082764	-14.1219
1671.983398	80.199135	-13.5562
1684.099243	80.280823	-13.1783
1696.302856	80.202545	-12.8634
1708.594971	80.083549	-12.4652
1720.976196	80.012093	-11.7314
1733.447144	79.960182	-10.8551
1746.008423	79.930901	-9.9484
1758.660645	79.917030	-9.0090
1771.404663	79.914307	-8.0862
1784.240967	79.916985	-7.1340
1797.170288	79.913132	-6.1416
1810.193359	79.916962	-5.0505
1823.310791	79.918472	-3.7122
1836.523193	79.978584	-2.3850
1849.831421	80.196945	-1.2714
1863.236084	80.448891	-0.3983
1876.737793	80.622269	0.0729
1890.337524	80.775352	0.3451
1904.035645	80.926125	0.6234
1917.833008	81.086334	0.7469
1931.730469	81.299149	0.5874
1945.728638	81.488297	0.2449
1959.828125	81.570564	-0.2713
1974.029907	81.607903	-0.8157
1988.334473	81.639587	-1.2257
2002.742798	81.652985	-1.5419
2017.255493	81.645309	-1.7703
2031.873291	81.625092	-1.8560
