* Measurement data measured by REW V5.20 Beta 53
* Source: C:\Users\Napie\Music\REW\Top Speakers\New Folder\5-ER.txt
* Format: Comma/Tab/Space delimited data
* Dated: May 26, 2020 2:57:11 PM
* REW Settings:
*  C-weighting compensation: Off
*  Target level: 75.0 dB
* Note: ; Measurement imported from C:\Users\Napie\Music\REW\Top Speakers\New Folder\5-ER.txt Format: Comma/Tab/Space delimited data 623 values loaded, 5 Hz to 39,792 Hz log spaced 
* Measurement: 5-ER
* Smoothing: None
* Frequency Step: 1/96 octave
* Start Frequency: 20.000 Hz
*
* Freq(Hz)	SPL(dB)	Phase(degrees)
20.000000	58.155762	-72.9485
20.144928	58.404770	-73.4947
20.290907	58.653778	-74.0465
20.437943	58.902317	-74.6005
20.586044	59.150829	-75.1616
20.735220	59.401100	-75.7387
20.885475	59.648712	-76.3173
21.036821	59.887268	-76.8891
21.189262	60.124702	-77.4453
21.342808	60.367004	-77.9656
21.497467	60.613697	-78.4764
21.653246	60.868607	-79.0044
21.810154	61.124660	-79.5283
21.968201	61.369576	-80.0238
22.127390	61.622715	-80.5255
22.287735	61.908798	-81.0600
22.449242	62.199772	-81.6275
22.611917	62.466553	-82.2350
22.775772	62.736660	-82.8882
22.940815	63.039604	-83.6021
23.107054	63.340614	-84.3560
23.274498	63.601017	-85.1376
23.443153	63.861633	-85.9369
23.613033	64.150986	-86.6695
23.784142	64.467712	-87.5461
23.956491	64.856941	-88.8252
24.130091	65.207642	-90.2813
24.304947	65.381134	-91.8252
24.481071	65.504837	-93.3052
24.658470	65.672638	-94.4667
24.837156	65.847755	-95.5285
25.017136	66.041588	-96.7034
25.198421	66.202866	-97.7580
25.381020	66.237534	-98.4942
25.564941	66.284927	-99.0176
25.750195	66.486053	-99.2681
25.936790	66.742653	-99.5465
26.124741	67.025879	-100.2772
26.314051	67.267708	-101.0310
26.504732	67.320755	-101.4590
26.696796	67.393845	-101.7407
26.890253	67.711098	-101.8597
27.085112	68.081573	-102.0577
27.281382	68.363922	-102.6428
27.479073	68.631638	-103.4009
27.678198	68.928024	-104.2481
27.878765	69.203636	-105.0988
28.080786	69.388870	-105.8074
28.284271	69.586685	-106.4701
28.489231	69.905342	-107.0619
28.695675	70.260506	-107.8028
28.903616	70.621323	-109.0292
29.113064	70.934608	-110.3691
29.324028	71.079582	-111.5053
29.536524	71.227776	-112.6057
29.750557	71.572151	-113.6929
29.966141	71.929634	-114.8886
30.183289	72.152519	-116.4215
30.402010	72.325798	-117.9931
30.622314	72.484932	-119.3606
30.844217	72.631821	-120.5826
31.067726	72.769608	-121.5837
31.292856	72.929726	-122.5246
31.519617	73.173332	-123.5669
31.748020	73.414726	-124.6337
31.978081	73.557838	-125.7184
32.209808	73.693810	-126.7697
32.443211	73.896843	-127.6737
32.678310	74.122696	-128.6107
32.915108	74.364952	-129.7901
33.153625	74.583763	-131.0125
33.393871	74.704529	-132.1259
33.635857	74.824791	-133.1954
33.879597	75.049026	-134.2069
34.125103	75.282700	-135.2466
34.372387	75.456970	-136.4806
34.621464	75.597809	-137.6553
34.872345	75.678505	-138.4928
35.125042	75.788826	-139.2291
35.379574	76.052353	-139.9866
35.635948	76.341660	-140.8319
35.894180	76.545738	-141.9116
36.154285	76.737709	-143.1072
36.416275	76.971024	-144.3435
36.680161	77.194679	-145.6360
36.945961	77.365448	-147.0116
37.213688	77.512802	-148.3611
37.483353	77.642426	-149.5343
37.754974	77.782761	-150.6802
38.028561	77.992569	-151.9438
38.304131	78.186768	-153.1884
38.581699	78.253601	-154.2911
38.861279	78.330833	-155.3544
39.142883	78.570877	-156.4268
39.426529	78.819695	-157.5494
39.712231	78.935364	-158.8209
40.000000	79.031837	-160.1171
40.289856	79.201500	-161.3277
40.581814	79.368774	-162.5093
40.875885	79.473679	-163.7305
41.172089	79.560867	-164.8464
41.470440	79.637161	-165.6407
41.770950	79.756752	-166.3957
42.073643	80.019882	-167.3366
42.378525	80.295639	-168.4223
42.685616	80.449249	-169.7040
42.994934	80.590790	-171.1289
43.306492	80.824539	-172.6750
43.620308	81.034737	-174.3015
43.936401	81.104187	-175.9911
44.254780	81.139946	-177.6504
44.575470	81.234413	-179.1705
44.898483	81.315895	179.4201
45.223835	81.316071	178.1440
45.551544	81.315979	176.9567
45.881630	81.403358	175.8349
46.214108	81.490883	174.7377
46.548996	81.512871	173.5195
46.886307	81.491058	172.4704
47.226067	81.393341	171.8820
47.568283	81.316078	171.6072
47.912983	81.366417	171.6650
48.260181	81.480774	171.8457
48.609894	81.622742	171.9695
48.962143	81.816666	171.9642
49.316940	82.096474	171.6996
49.674313	82.397522	171.1701
50.034271	82.664986	170.2611
50.396843	82.902664	169.1697
50.762039	83.082916	168.0525
51.129883	83.245720	166.9189
51.500389	83.424362	165.8647
51.873581	83.611664	164.7869
52.249481	83.817894	163.6135
52.628101	84.023666	162.3472
53.009464	84.214005	160.9461
53.393593	84.385727	159.4726
53.780506	84.528900	157.9548
54.170223	84.648827	156.4544
54.562763	84.743233	155.0309
54.958145	84.824883	153.7180
55.356396	84.892624	152.6235
55.757530	84.985802	151.5858
56.161572	85.168365	150.4852
56.568542	85.365685	149.3010
56.978462	85.508446	147.9577
57.391350	85.643738	146.5008
57.807232	85.815201	144.9267
58.226128	85.964775	143.3078
58.648056	86.025925	141.6949
59.073048	86.066933	140.1495
59.501114	86.138550	138.8027
59.932281	86.227821	137.4973
60.366577	86.346909	136.1168
60.804020	86.470795	134.6686
61.244629	86.574768	133.1152
61.688435	86.669846	131.4759
62.135452	86.768280	129.7328
62.585712	86.841911	127.9600
63.039234	86.852760	126.2133
63.496040	86.842026	124.5307
63.956161	86.842003	122.9925
64.419617	86.842003	121.5276
64.886421	86.842003	120.1009
65.356621	86.842010	118.6835
65.830215	86.854431	117.1918
66.307251	86.842064	115.7546
66.787743	86.746704	114.4728
67.271713	86.643166	113.3499
67.759193	86.598610	112.4693
68.250206	86.579018	111.6913
68.744774	86.572685	110.8972
69.242928	86.578987	110.1053
69.744690	86.594284	109.2939
70.250084	86.615944	108.4656
70.759148	86.638321	107.6249
71.271896	86.666946	106.7437
71.788361	86.713600	105.7824
72.308571	86.753944	104.7799
72.832550	86.759438	103.7485
73.360321	86.754013	102.7288
73.891922	86.753998	101.7775
74.427376	86.754005	100.8597
74.966705	86.753998	99.9590
75.509949	86.753998	99.0766
76.057121	86.753998	98.2090
76.608261	86.753998	97.3557
77.163399	86.753998	96.5148
77.722557	86.753998	95.6866
78.285767	86.753998	94.8728
78.853058	86.753998	94.0686
79.424461	86.753998	93.2736
80.000000	86.753998	92.4765
80.579712	86.759430	91.6442
81.163628	86.754028	90.8425
81.751770	86.710220	90.1297
82.344177	86.667068	89.4962
82.940880	86.659492	88.9902
83.541901	86.672951	88.4960
84.147285	86.713791	87.8948
84.757050	86.753929	87.2433
85.371231	86.759064	86.5410
85.989868	86.754013	85.8414
86.612984	86.753998	85.2055
87.240616	86.754005	84.6111
87.872803	86.753998	84.0436
88.509560	86.753998	83.5410
89.150940	86.739319	83.1901
89.796967	86.753922	82.8298
90.447670	86.869431	82.3150
91.103088	86.988792	81.6814
91.763260	87.018158	80.8552
92.428215	87.018005	80.0215
93.097992	87.011070	79.3969
93.772614	87.017960	78.8172
94.452133	87.085663	78.1878
95.136566	87.157875	77.5145
95.825966	87.184219	76.7269
96.520363	87.192993	75.9595
97.219788	87.181137	75.3869
97.924286	87.192932	74.8202
98.633881	87.302940	74.1277
99.348625	87.417801	73.3098
100.068542	87.455963	72.2495
100.793686	87.455048	71.1666
101.524078	87.413933	70.2654
102.259766	87.368080	69.4768
103.000778	87.357063	68.8434
103.747162	87.367950	68.2322
104.498962	87.411911	67.5097
105.256203	87.455933	66.7185
106.018929	87.464439	65.8320
106.787186	87.456039	64.9257
107.561012	87.435104	64.0806
108.340446	87.409042	63.2553
109.125526	87.396530	62.4064
109.916290	87.368073	61.6194
110.712791	87.278114	60.9824
111.515060	87.193146	60.4440
112.323143	87.182060	60.0226
113.137085	87.192970	59.5949
113.956924	87.203682	58.9737
114.782700	87.193069	58.3674
115.614464	87.097015	57.9850
116.452255	87.022079	57.6416
117.296112	87.107559	57.1967
118.146095	87.192886	56.7220
119.002228	87.105492	56.2465
119.864563	87.018158	55.7603
120.733154	87.105255	55.2689
121.608040	87.192871	54.7551
122.489258	87.116661	54.1464
123.376869	87.018204	53.6141
124.270905	86.996132	53.4164
125.171425	87.017921	53.2234
126.078468	87.114319	52.7118
126.992081	87.192902	52.1143
127.912323	87.123116	51.5658
128.839233	87.049110	51.0410
129.772842	87.111847	50.6058
130.713242	87.192863	50.1201
131.660431	87.203011	49.4199
132.614502	87.193039	48.6412
133.575485	87.194946	47.8558
134.543427	87.177063	47.0943
135.518387	87.104340	46.4030
136.500412	87.018166	45.8070
137.489548	86.955505	45.3557
138.485855	86.895149	45.0227
139.489380	86.816986	44.8142
140.500168	86.754105	44.6812
141.518295	86.745178	44.5917
142.543793	86.753967	44.5003
143.576721	86.753998	44.3289
144.617142	86.753998	44.1424
145.665100	86.752808	43.9693
146.720642	86.753990	43.8413
147.783844	86.745110	43.8622
148.854752	86.772850	43.8442
149.933411	86.912918	43.6376
151.019897	87.066658	43.2273
152.114243	87.148216	42.4788
153.216522	87.192924	41.6015
154.326797	87.200882	40.7778
155.445114	87.193024	39.9568
156.571533	87.201057	39.1357
157.706116	87.193047	38.3497
158.848923	87.131538	37.6422
160.000000	87.064148	36.9865
161.159424	87.045860	36.3568
162.327255	87.018089	35.7942
163.503540	86.915985	35.3267
164.688354	86.812202	34.9677
165.881760	86.770180	34.7851
167.083801	86.754021	34.6424
168.294571	86.750374	34.4168
169.514099	86.753983	34.1338
170.742462	86.759430	33.7486
171.979736	86.754036	33.3500
173.225967	86.705925	33.0418
174.481232	86.667053	32.7347
175.745605	86.703644	32.3720
177.019119	86.741936	31.9581
178.301880	86.709290	31.4677
179.593933	86.667091	30.9334
180.895340	86.673302	30.3784
182.206177	86.667053	29.8054
183.526520	86.595650	29.1670
184.856430	86.491257	28.6350
186.195984	86.350876	28.4233
187.545227	86.228226	28.3600
188.904266	86.203957	28.3462
190.273132	86.195038	28.3729
191.651932	86.122147	28.3762
193.040726	86.053154	28.4228
194.439575	86.033195	28.6328
195.848572	86.052887	28.7838
197.267761	86.140251	28.6755
198.697250	86.227821	28.3560
200.137085	86.254555	27.7202
201.587372	86.228127	27.0305
203.048157	86.111847	26.5410
204.519531	85.978363	26.1739
206.001556	85.917038	25.9191
207.494324	85.842232	25.8240
208.997925	85.667633	25.8871
210.512405	85.482422	26.2457
212.037857	85.331970	27.1722
213.574371	85.263039	28.2633
215.122025	85.380836	29.2277
216.680893	85.555519	29.9963
218.251053	85.674675	30.3493
219.832581	85.788673	30.4490
221.425583	85.923454	30.3695
223.030121	86.041733	30.1596
224.646286	86.098701	29.8860
226.274170	86.141884	29.5688
227.913849	86.212692	29.2805
229.565399	86.285828	28.9319
231.228928	86.359024	28.4075
232.904510	86.403931	27.8575
234.592224	86.369011	27.3930
236.292191	86.321114	27.0198
238.004456	86.319603	26.8277
239.729126	86.336937	26.6754
241.466309	86.371399	26.4315
243.216080	86.403931	26.1537
244.978516	86.408188	25.8445
246.753738	86.404015	25.5409
248.541809	86.403999	25.2880
250.342850	86.403999	25.0646
252.156937	86.403999	24.8556
253.984161	86.403999	24.6864
255.824646	86.392761	24.6254
257.678467	86.403931	24.5283
259.545685	86.499565	24.2393
261.426483	86.583855	23.8610
263.320862	86.548897	23.4169
265.229004	86.491142	22.9921
267.150970	86.490608	22.7077
269.086853	86.491013	22.4806
271.036774	86.458618	22.2025
273.000824	86.404190	22.0670
274.979095	86.294411	22.3149
276.971710	86.228058	22.7018
278.978760	86.332291	23.1242
281.000336	86.490555	23.3947
283.036591	86.626389	23.2145
285.087585	86.743683	22.8125
287.153442	86.807213	22.3402
289.234283	86.858856	21.7358
291.330200	86.960815	20.9232
293.441284	87.017952	20.0942
295.567688	86.906441	19.4075
297.709503	86.772324	18.8901
299.866821	86.747635	18.6932
302.039795	86.753960	18.6022
304.228485	86.747375	18.4474
306.433044	86.753960	18.2417
308.653595	86.797989	17.9459
310.890228	86.841896	17.5483
313.143066	86.859062	16.9634
315.412231	86.840111	16.3726
317.697845	86.748924	15.9180
320.000000	86.639313	15.6345
322.318848	86.552666	15.6453
324.654510	86.491135	15.8273
327.007080	86.465317	16.1665
329.376709	86.490829	16.4574
331.763519	86.619125	16.4641
334.167603	86.753632	16.2599
336.589142	86.791313	15.8058
339.028198	86.800987	15.2069
341.484924	86.842293	14.5143
343.959473	86.842102	13.8527
346.451935	86.710922	13.3420
348.962463	86.555412	13.0474
351.491211	86.461784	13.1482
354.038239	86.404114	13.4231
356.603760	86.389122	13.7224
359.187866	86.403915	14.0072
361.790680	86.443497	14.1714
364.412354	86.490868	14.2688
367.053040	86.516670	14.3357
369.712860	86.552864	14.3212
372.391968	86.640228	14.1819
375.090454	86.723801	13.9308
377.808533	86.755081	13.5112
380.546265	86.754036	13.0901
383.303864	86.712502	12.8308
386.081451	86.667114	12.6902
388.879150	86.656815	12.7047
391.697144	86.666939	12.7966
394.535522	86.687714	12.9457
397.394501	86.742775	13.0160
400.274170	86.879364	12.8517
403.174744	87.017609	12.4915
406.096313	87.078560	11.8779
409.039062	87.104958	11.1454
412.003113	87.126869	10.3599
414.988647	87.105171	9.6699
417.995850	86.973961	9.2661
421.024811	86.842354	9.0902
424.075714	86.814560	9.2428
427.148743	86.841843	9.4365
430.244049	86.924263	9.3924
433.361786	87.017715	9.1810
436.502106	87.072372	8.7441
439.665161	87.104935	8.1928
442.851166	87.115875	7.6098
446.060242	87.105072	7.0228
449.292572	87.072128	6.4638
452.548340	87.018188	6.0012
455.827698	86.929337	5.7472
459.130798	86.850204	5.6023
462.457855	86.841003	5.5076
465.809021	86.842018	5.4511
469.184448	86.797653	5.3832
472.584381	86.754112	5.3590
476.008911	86.742310	5.4545
479.458252	86.753922	5.5597
482.932617	86.795403	5.6029
486.432159	86.852798	5.5434
489.957031	86.925606	5.2698
493.507477	86.979889	4.9231
497.083618	86.957413	4.6161
500.685699	86.930054	4.3259
504.313873	86.968216	4.1041
507.968323	87.019836	3.8380
511.649292	87.057159	3.3938
515.356934	87.075974	2.8837
519.091370	87.061592	2.3346
522.852966	87.018188	1.8713
526.641724	86.924011	1.6630
530.458008	86.842201	1.6040
534.301941	86.844116	1.7001
538.173706	86.884811	1.7839
542.073547	86.949265	1.6659
546.001648	87.017776	1.4161
549.958191	87.062935	1.0184
553.943420	87.092926	0.5456
557.957520	87.103676	0.0650
562.000671	87.105003	-0.4233
566.073181	87.105751	-0.8885
570.175171	87.105003	-1.3564
574.306885	87.105003	-1.8299
578.468567	87.105003	-2.3481
582.660400	87.117989	-2.9945
586.882568	87.105125	-3.6399
591.135376	87.008507	-4.1918
595.419006	86.897362	-4.6198
599.733643	86.829002	-4.8143
604.079590	86.783119	-4.9207
608.456970	86.761421	-5.0466
612.866089	86.754005	-5.1995
617.307190	86.752182	-5.4230
621.780457	86.753990	-5.7129
626.286133	86.758865	-6.0972
630.824463	86.754044	-6.5216
635.395691	86.715706	-6.9259
640.000000	86.676125	-7.3545
644.637695	86.677628	-7.8481
649.309021	86.667084	-8.3593
654.014160	86.584198	-8.8553
658.753418	86.491287	-9.3295
663.527039	86.447632	-9.7408
668.335205	86.404175	-10.1595
673.178284	86.332794	-10.7011
678.056396	86.228416	-11.1896
682.969849	86.058556	-11.4855
687.918945	85.877602	-11.5910
692.903870	85.734947	-11.4259
697.924927	85.614372	-11.1003
702.982422	85.515869	-10.6938
708.076477	85.439240	-10.2208
713.207520	85.384224	-9.7115
718.375732	85.351074	-9.1968
723.581360	85.345490	-8.7355
728.824707	85.350975	-8.2736
734.106079	85.332024	-7.7206
739.425720	85.350815	-7.2424
744.783936	85.494049	-6.9655
750.180908	85.654465	-6.9227
755.617065	85.740753	-7.2640
761.092529	85.788895	-7.7650
766.607727	85.797386	-8.2312
772.162903	85.789040	-8.7162
777.758301	85.796867	-9.2112
783.394287	85.789078	-9.7133
789.071045	85.742973	-10.2662
794.789001	85.663353	-10.7207
800.548340	85.529869	-10.9281
806.349487	85.395432	-10.9264
812.192627	85.310478	-10.6561
818.078125	85.263100	-10.2625
824.006226	85.256325	-9.8260
829.977295	85.294777	-9.4839
835.991699	85.406006	-9.4146
842.049622	85.524605	-9.5759
848.151428	85.585213	-10.0353
854.297485	85.613945	-10.6416
860.488098	85.611603	-11.2523
866.723572	85.590103	-11.9055
873.004211	85.571045	-12.6030
879.330322	85.526230	-13.3135
885.702332	85.435349	-14.0784
892.120483	85.295593	-14.6803
898.585144	85.060059	-14.8430
905.096680	84.840683	-14.7795
911.655396	84.786942	-14.6332
918.261597	84.742249	-14.3443
924.915710	84.535149	-13.8779
931.618042	84.354492	-13.3003
938.368896	84.389473	-12.5995
945.168762	84.473694	-11.9760
952.017822	84.481506	-11.7064
958.916504	84.474037	-11.5555
965.865234	84.468567	-11.3335
972.864319	84.473946	-11.1724
979.914062	84.522751	-11.1628
987.014954	84.560905	-11.2435
994.167236	84.531975	-11.4247
1001.371399	84.474236	-11.5815
1008.627747	84.405411	-11.5817
1015.936646	84.332306	-11.4568
1023.298584	84.262863	-11.1688
1030.713867	84.211121	-10.7963
1038.182739	84.203423	-10.4042
1045.705933	84.210953	-9.9977
1053.283447	84.205566	-9.6123
1060.916016	84.210938	-9.2236
1068.603882	84.237137	-8.7629
1076.347412	84.297661	-8.3982
1084.147095	84.435646	-8.2964
1092.003296	84.572594	-8.3964
1099.916382	84.628059	-8.7440
1107.886841	84.648964	-9.1802
1115.915039	84.653946	-9.5374
1124.001343	84.649025	-9.8848
1132.146362	84.652817	-10.2352
1140.350342	84.646065	-10.5946
1148.613770	84.619911	-11.0258
1156.937134	84.561325	-11.3709
1165.320801	84.430229	-11.4781
1173.765137	84.298523	-11.3878
1182.270752	84.236870	-11.0403
1190.838013	84.211037	-10.5869
1199.467285	84.206329	-10.1398
1208.159180	84.232826	-9.7603
1216.913940	84.310677	-9.5521
1225.732178	84.395714	-9.4989
1234.614380	84.446922	-9.6583
1243.560913	84.473938	-9.9109
1252.572266	84.473061	-10.1912
1261.648926	84.444176	-10.3934
1270.791382	84.365196	-10.3591
1280.000000	84.298187	-10.1820
1289.275391	84.310539	-9.8375
1298.618042	84.365685	-9.5250
1308.028320	84.465187	-9.4825
1317.506836	84.560654	-9.5724
1327.054077	84.583008	-9.7480
1336.670410	84.594940	-9.9681
1346.356567	84.646713	-10.1385
1356.112793	84.708771	-10.3700
1365.939697	84.773323	-10.7689
1375.837891	84.823830	-11.2568
1385.807739	84.834999	-11.8071
1395.849854	84.825073	-12.3678
1405.964844	84.805786	-12.8873
1416.152954	84.772156	-13.3385
1426.415039	84.712471	-13.6597
1436.751465	84.658173	-13.9031
1447.162720	84.646385	-14.0839
1457.649414	84.648979	-14.2533
1468.212158	84.644005	-14.4637
1478.851440	84.648949	-14.7279
1489.567871	84.677803	-15.0380
1500.361816	84.719818	-15.5057
1511.234131	84.793182	-16.3107
1522.185059	84.825020	-17.2437
1533.215454	84.712067	-18.1647
1544.325806	84.561668	-19.0393
1555.516602	84.481819	-19.8110
1566.788574	84.371613	-20.4089
1578.142090	84.121262	-20.7603
1589.578003	83.861023	-20.8154
1601.096680	83.696617	-20.3889
1612.698975	83.596283	-19.8145
1624.385254	83.579475	-19.3678
1636.156250	83.595901	-19.0460
1648.012451	83.597313	-18.9576
1659.954590	83.596016	-19.0404
1671.983398	83.600647	-19.3146
1684.099243	83.575203	-19.6387
1696.302856	83.458679	-19.8640
1708.594971	83.333527	-20.0304
1720.976196	83.285553	-20.1006
1733.447144	83.246216	-20.1597
1746.008423	83.163887	-20.3017
1758.660645	83.070404	-20.4653
1771.404663	82.992470	-20.6429
1784.240967	82.895462	-20.7647
1797.170288	82.732742	-20.7523
1810.193359	82.565620	-20.6218
1823.310791	82.455017	-20.3409
1836.523193	82.357391	-19.9775
1849.831421	82.241119	-19.5997
1863.236084	82.129471	-19.1750
1876.737793	82.037445	-18.6696
1890.337524	81.959312	-18.1542
1904.035645	81.906532	-17.7355
1917.833008	81.842323	-17.2750
1931.730469	81.700584	-16.6257
1945.728638	81.579399	-15.9161
1959.828125	81.594719	-15.2076
1974.029907	81.629890	-14.5586
1988.334473	81.583931	-14.0941
2002.742798	81.521255	-13.6748
2017.255493	81.487656	-13.2220
