* Measurement data measured by REW V5.20 Beta 53
* Source: C:\Users\Napie\Music\REW\Top Speakers\New Folder\5-ERDI.txt
* Format: Comma/Tab/Space delimited data
* Dated: May 26, 2020 2:58:53 PM
* REW Settings:
*  C-weighting compensation: Off
*  Target level: 75.0 dB
* Note: ; Measurement imported from C:\Users\Napie\Music\REW\Top Speakers\New Folder\5-ERDI.txt Format: Comma/Tab/Space delimited data 623 values loaded, 5 Hz to 39,792 Hz log spaced 
* Measurement: 5-ERDI
* Smoothing: None
* Frequency Step: 1/96 octave
* Start Frequency: 20.000 Hz
*
* Freq(Hz)	SPL(dB)	Phase(degrees)
20.000000	48.322906	86.7546
20.144928	48.422844	86.0946
20.290907	48.522911	85.3996
20.437943	48.622925	84.6691
20.586044	48.722931	83.8806
20.735220	48.822910	83.0409
20.885475	48.922882	82.0622
21.036821	49.051804	80.7744
21.189262	49.122974	79.4297
21.342808	49.020676	78.1708
21.497467	48.860210	77.1580
21.653246	48.731548	76.5961
21.810154	48.596188	76.4938
21.968201	48.391964	77.0682
22.127390	48.279037	77.9000
22.287735	48.476391	78.6864
22.449242	48.746792	79.2926
22.611917	48.889690	79.3597
22.775772	49.011852	79.2592
22.940815	49.142307	79.3526
23.107054	49.314732	79.3132
23.274498	49.619751	78.8871
23.443153	49.915642	78.2141
23.613033	50.043827	77.3202
23.784142	50.143906	76.2949
23.956491	50.341309	75.2482
24.130091	50.521820	74.1443
24.304947	50.585449	72.9295
24.481071	50.613968	71.7664
24.658470	50.654438	70.8684
24.837156	50.711903	70.0312
25.017136	50.824921	69.1172
25.198421	50.939888	68.1380
25.381020	51.008137	67.0196
25.564941	51.052967	65.8821
25.750195	51.077667	64.8272
25.936790	51.093983	63.8372
26.124741	51.113220	62.9449
26.314051	51.139954	62.0992
26.504732	51.183121	61.2806
26.696796	51.240921	60.4271
26.890253	51.319527	59.4830
27.085112	51.403900	58.4103
27.281382	51.490219	57.1187
27.479073	51.550941	55.7100
27.678198	51.544285	54.2467
27.878765	51.509060	52.7571
28.080786	51.480488	51.2999
28.284271	51.428093	49.8470
28.489231	51.340656	48.3066
28.695675	51.195255	46.9287
28.903616	50.923779	45.9834
29.113064	50.650360	45.3218
29.324028	50.528709	44.8463
29.536524	50.403183	44.6700
29.750557	50.089043	44.9373
29.966141	49.825218	45.4583
30.183289	49.865757	46.1740
30.402010	49.982853	46.8343
30.622314	49.993366	47.1194
30.844217	50.014946	47.1781
31.067726	50.141754	47.0496
31.292856	50.262852	46.7456
31.519617	50.272266	46.2354
31.748020	50.248035	45.6847
31.978081	50.238327	45.2808
32.209808	50.228012	44.9284
32.443211	50.218071	44.5927
32.678310	50.208015	44.2774
32.915108	50.197014	43.9761
33.153625	50.187016	43.6854
33.393871	50.179691	43.4047
33.635857	50.175007	43.1194
33.879597	50.174248	42.8279
34.125103	50.175003	42.4905
34.372387	50.190556	42.0076
34.621464	50.175064	41.5566
34.872345	50.055496	41.2780
35.125042	49.926144	41.1850
35.379574	49.871037	41.3860
35.635948	49.849010	41.7355
35.894180	49.834869	42.1625
36.154285	49.863918	42.5515
36.416275	49.990406	42.7536
36.680161	50.132793	42.7981
36.945961	50.205959	42.6469
37.213688	50.273884	42.3535
37.483353	50.389629	41.9739
37.754974	50.501842	41.4629
38.028561	50.572166	40.7611
38.304131	50.613960	39.9671
38.581699	50.631935	39.1266
38.861279	50.614059	38.3401
39.142883	50.533009	37.7274
39.426529	50.439121	37.2765
39.712231	50.381756	37.0338
40.000000	50.337063	36.9430
40.289856	50.282688	37.0106
40.581814	50.262993	37.0949
40.875885	50.346233	37.0465
41.172089	50.438881	36.8943
41.470440	50.450005	36.5619
41.770950	50.439022	36.2165
42.073643	50.428066	36.0658
42.378525	50.438957	35.9143
42.685616	50.526367	35.6224
42.994934	50.613895	35.2266
43.306492	50.624943	34.6878
43.620308	50.614021	34.0939
43.936401	50.624931	33.5020
44.254780	50.614048	32.9668
44.575470	50.526649	32.5825
44.898483	50.439114	32.2874
45.223835	50.442425	32.0234
45.551544	50.439034	31.8721
45.881630	50.310757	31.9399
46.214108	50.209095	32.0957
46.548996	50.300995	32.2744
46.886307	50.423832	32.3839
47.226067	50.434002	32.2748
47.568283	50.438969	32.0544
47.912983	50.527275	31.7940
48.260181	50.613880	31.4536
48.609894	50.624943	30.9791
48.962143	50.614021	30.4837
49.316940	50.613998	30.0871
49.674313	50.614002	29.7176
50.034271	50.613998	29.3510
50.396843	50.613995	28.9636
50.762039	50.624931	28.4823
51.129883	50.614048	28.0317
51.500389	50.526669	27.7254
51.873581	50.439129	27.5243
52.249481	50.428055	27.4656
52.628101	50.438976	27.4331
53.009464	50.438999	27.3011
53.393593	50.438999	27.1343
53.780506	50.438999	26.9576
54.170223	50.439003	26.7663
54.562763	50.438999	26.5650
54.958145	50.438999	26.3504
55.356396	50.438999	26.1250
55.757530	50.438999	25.8764
56.161572	50.441811	25.5931
56.568542	50.439011	25.2746
56.978462	50.430225	24.8667
57.391350	50.394104	24.5185
57.807232	50.281902	24.3832
58.226128	50.175152	24.3959
58.648056	50.155807	24.6065
59.073048	50.174946	24.8227
59.501114	50.218918	24.8378
59.932281	50.262936	24.7433
60.366577	50.272251	24.5309
60.804020	50.263031	24.2944
61.244629	50.234806	24.1334
61.688435	50.203049	24.0221
62.135452	50.185276	23.9825
62.585712	50.175011	23.9700
63.039234	50.173248	23.9454
63.496040	50.174995	23.9141
63.956161	50.174999	23.8650
64.419617	50.174999	23.8081
64.886421	50.174999	23.7492
65.356621	50.174999	23.6891
65.830215	50.174999	23.6305
66.307251	50.174999	23.5731
66.787743	50.174999	23.5174
67.271713	50.174999	23.4641
67.759193	50.174999	23.4138
68.250206	50.174999	23.3681
68.744774	50.174999	23.3271
69.242928	50.174999	23.2950
69.744690	50.174999	23.2723
70.250084	50.174999	23.2710
70.759148	50.169502	23.3260
71.271896	50.174973	23.3700
71.788361	50.224407	23.3065
72.308571	50.262959	23.2570
72.832550	50.208103	23.3611
73.360321	50.175003	23.4698
73.891922	50.301228	23.4918
74.427376	50.438774	23.3923
74.966705	50.455509	23.0364
75.509949	50.439041	22.6337
76.057121	50.438999	22.3841
76.608261	50.438995	22.1854
77.163399	50.438999	21.9994
77.722557	50.438999	21.8313
78.285767	50.438999	21.6739
78.853058	50.438999	21.5263
79.424461	50.438999	21.3851
80.000000	50.438999	21.2503
80.579712	50.438999	21.1209
81.163628	50.438999	20.9962
81.751770	50.438999	20.8748
82.344177	50.438999	20.7572
82.940880	50.438999	20.6440
83.541901	50.439003	20.5342
84.147285	50.438999	20.4274
84.757050	50.438999	20.3232
85.371231	50.438999	20.2210
85.989868	50.438999	20.1212
86.612984	50.438999	20.0240
87.240616	50.439003	19.9292
87.872803	50.438999	19.8366
88.509560	50.438999	19.7462
89.150940	50.438999	19.6581
89.796967	50.438999	19.5722
90.447670	50.438999	19.4883
91.103088	50.438999	19.4062
91.763260	50.438999	19.3252
92.428215	50.439003	19.2462
93.097992	50.438999	19.1701
93.772614	50.438999	19.0961
94.452133	50.438999	19.0236
95.136566	50.438999	18.9531
95.825966	50.438999	18.8852
96.520363	50.438999	18.8191
97.219788	50.438999	18.7541
97.924286	50.438999	18.6911
98.633881	50.438999	18.6309
99.348625	50.439003	18.5731
100.068542	50.438999	18.5174
100.793686	50.438999	18.4641
101.524078	50.438999	18.4134
102.259766	50.438999	18.3651
103.000778	50.438999	18.3192
103.747162	50.438999	18.2761
104.498962	50.438999	18.2358
105.256203	50.438999	18.1991
106.018929	50.438999	18.1664
106.787186	50.438999	18.1381
107.561012	50.438999	18.1139
108.340446	50.438999	18.0950
109.125526	50.438999	18.0817
109.916290	50.438999	18.0760
110.712791	50.438999	18.0782
111.515060	50.438999	18.0940
112.323143	50.438999	18.1199
113.137085	50.438999	18.1828
113.956924	50.428066	18.3504
114.782700	50.438927	18.4967
115.614464	50.526291	18.5047
116.452255	50.613861	18.4133
117.296112	50.624947	18.1841
118.146095	50.614033	17.9335
119.002228	50.613998	17.7872
119.864563	50.613998	17.6793
120.733154	50.613998	17.5836
121.608040	50.613998	17.5042
122.489258	50.613998	17.4355
123.376869	50.613998	17.3801
124.270905	50.613998	17.3328
125.171425	50.613998	17.3110
126.078468	50.605003	17.3723
126.992081	50.613949	17.3921
127.912323	50.694832	17.2192
128.839233	50.757931	16.9895
129.772842	50.695160	16.7671
130.713242	50.614140	16.6182
131.660431	50.604988	16.6761
132.614502	50.613964	16.8036
133.575485	50.609692	16.8997
134.543427	50.613976	16.9869
135.518387	50.641811	17.0771
136.500412	50.682911	17.1020
137.489548	50.740192	16.9826
138.485855	50.788906	16.7626
139.489380	50.806561	16.4018
140.500168	50.789085	16.0736
141.518295	50.701725	15.9601
142.543793	50.614185	15.9977
143.576721	50.598061	16.2348
144.617142	50.613937	16.5154
145.665100	50.647957	16.6940
146.720642	50.693867	16.7859
147.783844	50.746372	16.7348
148.854752	50.788914	16.6114
149.933411	50.794945	16.4571
151.019897	50.789021	16.3043
152.114243	50.789001	16.2107
153.216522	50.789001	16.1422
154.326797	50.789001	16.0830
155.445114	50.789001	16.0351
156.571533	50.789001	15.9950
157.706116	50.789001	15.9631
158.848923	50.789001	15.9383
160.000000	50.789001	15.9210
161.159424	50.789001	15.9109
162.327255	50.789001	15.9090
163.503540	50.789001	15.9155
164.688354	50.789005	15.9329
165.881760	50.789001	15.9612
167.083801	50.789001	16.0078
168.294571	50.789001	16.0692
169.514099	50.789001	16.1797
170.742462	50.774948	16.4240
171.979736	50.788902	16.6475
173.225967	50.898766	16.7160
174.481232	51.013775	16.6503
175.745605	51.047527	16.3745
177.019119	51.053005	16.0458
178.301880	51.055443	15.8167
179.593933	51.053009	15.6264
180.895340	51.053001	15.4682
182.206177	51.053001	15.3303
183.526520	51.053001	15.1997
184.856430	51.053001	15.0733
186.195984	51.053001	14.9465
187.545227	51.052998	14.8103
188.904266	51.053001	14.6681
190.273132	51.053001	14.4785
191.651932	51.069489	14.1408
193.040726	51.053123	13.8367
194.439575	50.922970	13.7327
195.848572	50.789322	13.7767
197.267761	50.763897	14.0236
198.697250	50.764000	14.3163
200.137085	50.741940	14.4520
201.587372	50.702118	14.6195
203.048157	50.619793	14.9331
204.519531	50.535225	15.4173
206.001556	50.475307	16.1842
207.494324	50.455982	17.0848
208.997925	50.507935	18.0539
210.512405	50.613689	18.9491
212.037857	50.778759	19.5896
213.574371	50.964546	20.0232
215.122025	51.118908	20.2688
216.680893	51.287502	20.2345
218.251053	51.540497	19.7726
219.832581	51.753517	19.0683
221.425583	51.783150	18.1945
223.030121	51.754105	17.3440
224.646286	51.754002	16.7925
226.274170	51.754002	16.3660
227.913849	51.754002	15.9786
229.565399	51.754002	15.6368
231.228928	51.754002	15.3210
232.904510	51.754002	15.0249
234.592224	51.754002	14.7415
236.292191	51.754002	14.4528
238.004456	51.759933	14.1200
239.729126	51.754044	13.7978
241.466309	51.711632	13.5165
243.216080	51.659138	13.3114
244.978516	51.613178	13.2552
246.753738	51.579071	13.2669
248.541809	51.573994	13.2953
250.342850	51.578979	13.3229
252.156937	51.578999	13.3060
253.984161	51.578999	13.2731
255.824646	51.578999	13.2388
257.678467	51.578999	13.2021
259.545685	51.578999	13.1666
261.426483	51.578999	13.1331
263.320862	51.578999	13.1026
265.229004	51.578999	13.0771
267.150970	51.578999	13.0573
269.086853	51.578999	13.0470
271.036774	51.578999	13.0450
273.000824	51.578999	13.0669
274.979095	51.573505	13.1441
276.971710	51.578957	13.2278
278.978760	51.617439	13.2938
281.000336	51.666862	13.2981
283.036591	51.715874	13.1627
285.087585	51.753914	12.9647
287.153442	51.759445	12.7475
289.234283	51.754021	12.5355
291.330200	51.754002	12.3787
293.441284	51.754002	12.2444
295.567688	51.754002	12.1159
297.709503	51.754002	11.9943
299.866821	51.754002	11.8761
302.039795	51.753998	11.7584
304.228485	51.754002	11.6389
306.433044	51.754002	11.5124
308.653595	51.754063	11.3811
310.890228	51.753998	11.2195
313.143066	51.764366	10.9613
315.412231	51.753082	10.7305
317.697845	51.666203	10.6432
320.000000	51.579208	10.6598
322.318848	51.568111	10.8171
324.654510	51.578953	11.0015
327.007080	51.578999	11.0887
329.376709	51.578999	11.1449
331.763519	51.578999	11.1960
334.167603	51.578999	11.2399
336.589142	51.578999	11.2820
339.028198	51.578999	11.3239
341.484924	51.578999	11.3676
343.959473	51.578999	11.4169
346.451935	51.578999	11.4715
348.962463	51.578999	11.5448
351.491211	51.574940	11.6598
354.038239	51.578968	11.7866
356.603760	51.604527	11.9246
359.187866	51.643867	12.0089
361.790680	51.702892	11.9517
364.412354	51.753891	11.8195
367.053040	51.760883	11.6343
369.712860	51.754032	11.4426
372.391968	51.754002	11.3142
375.090454	51.754005	11.2013
377.808533	51.755440	11.0785
380.546265	51.754013	10.9464
383.303864	51.749649	10.7735
386.081451	51.731079	10.6313
388.879150	51.675114	10.5851
391.697144	51.617157	10.6228
394.535522	51.590927	10.7772
397.394501	51.579018	10.9774
400.274170	51.576622	11.1516
403.174744	51.578987	11.3334
406.096313	51.573505	11.5450
409.039062	51.578953	11.7494
412.003113	51.617416	11.9312
414.988647	51.666836	12.0468
417.995850	51.715855	12.0214
421.024811	51.753906	11.9323
424.075714	51.759445	11.8242
427.148743	51.754025	11.7223
430.244049	51.754002	11.6770
433.361786	51.754002	11.6570
436.502106	51.754002	11.6471
439.665161	51.753998	11.6490
442.851166	51.754002	11.6589
446.060242	51.753998	11.6779
449.292572	51.754002	11.7058
452.548340	51.754002	11.7429
455.827698	51.754002	11.7885
459.130798	51.754002	11.8448
462.457855	51.754002	11.9124
465.809021	51.753998	11.9957
469.184448	51.754002	12.0926
472.584381	51.753998	12.2235
476.008911	51.747822	12.4237
479.458252	51.753948	12.6473
482.932617	51.793030	12.8918
486.432159	51.852783	13.0617
489.957031	51.941414	13.0263
493.507477	52.017815	12.8865
497.083618	52.028324	12.6765
500.685699	52.018047	12.4686
504.313873	52.018002	12.3673
507.968323	52.018002	12.3121
511.649292	52.018002	12.2751
515.356934	52.018002	12.2610
519.091370	52.018002	12.2648
522.852966	52.018002	12.2889
526.641724	52.018002	12.3303
530.458008	52.018002	12.3997
534.301941	52.015003	12.5147
538.173706	52.017971	12.6515
542.073547	52.039478	12.7909
546.001648	52.065910	12.9365
549.958191	52.082066	13.0887
553.943420	52.104908	13.2375
557.957520	52.151138	13.3829
562.000671	52.206802	13.4947
566.073181	52.262997	13.5369
570.175171	52.320805	13.5261
574.306885	52.378307	13.4694
578.468567	52.435802	13.3595
582.660400	52.494865	13.1911
586.882568	52.549824	12.9649
591.135376	52.597980	12.6626
595.419006	52.631916	12.3361
599.733643	52.637131	12.0273
604.079590	52.632023	11.7489
608.456970	52.632000	11.5367
612.866089	52.632000	11.3635
617.307190	52.632000	11.2096
621.780457	52.631996	11.0873
626.286133	52.627132	11.0213
630.824463	52.631958	10.9553
635.395691	52.670296	10.8383
640.000000	52.709881	10.6776
644.637695	52.719364	10.4502
649.309021	52.719009	10.1969
654.014160	52.724998	9.9378
658.753418	52.719051	9.7127
663.527039	52.675659	9.5740
668.335205	52.632122	9.5031
673.178284	52.626556	9.5132
678.056396	52.631977	9.5598
682.969849	52.626568	9.6128
687.918945	52.631950	9.6420
692.903870	52.675343	9.6012
697.924927	52.718876	9.5084
702.982422	52.724445	9.3471
708.076477	52.719028	9.1756
713.207520	52.719002	9.0577
718.375732	52.719002	8.9613
723.581360	52.719002	8.8735
728.824707	52.719002	8.7982
734.106079	52.719002	8.7333
739.425720	52.719002	8.6841
744.783936	52.719002	8.6466
750.180908	52.719002	8.6479
755.617065	52.708889	8.7480
761.092529	52.718903	8.8457
766.607727	52.793381	8.8713
772.162903	52.880695	8.7875
777.758301	52.941444	8.4915
783.394287	52.981895	8.1104
789.071045	52.988319	7.7366
794.789001	52.982029	7.3752
800.548340	52.981998	7.0746
806.349487	52.981998	6.7970
812.192627	52.981998	6.5209
818.078125	52.981998	6.2450
824.006226	52.981998	5.9631
829.977295	52.981998	5.6681
835.991699	52.981998	5.3588
842.049622	52.981998	5.0114
848.151428	52.988926	4.5831
854.297485	52.982067	4.1287
860.488098	52.933838	3.6786
866.723572	52.871239	3.2644
873.004211	52.814457	2.9451
879.330322	52.757206	2.6699
885.702332	52.704201	2.3892
892.120483	52.642242	2.1577
898.585144	52.547474	2.0284
905.096680	52.456306	1.9582
911.655396	52.411957	1.9230
918.261597	52.371170	1.9170
924.915710	52.293179	1.9133
931.618042	52.212284	1.9508
938.368896	52.154198	2.0729
945.168762	52.105175	2.2393
952.017822	52.054985	2.4367
958.916504	52.018105	2.6263
965.865234	52.012619	2.7854
972.864319	52.017975	2.8520
979.914062	52.033916	2.6851
987.014954	52.017162	2.4986
994.167236	51.885956	2.4874
1001.371399	51.754391	2.5725
1008.627747	51.742538	2.7888
1015.936646	51.753967	2.9854
1023.298584	51.725578	2.9633
1030.713867	51.674213	2.8982
1038.182739	51.591660	2.8884
1045.705933	51.491459	2.9734
1053.283447	51.377682	3.2419
1060.916016	51.270428	3.6430
1068.603882	51.192150	4.1939
1076.347412	51.140152	4.7767
1084.147095	51.133503	5.2605
1092.003296	51.129044	5.6996
1099.916382	51.080158	6.0705
1107.886841	51.015285	6.4781
1115.915039	50.944649	7.0291
1124.001343	50.877224	7.6964
1132.146362	50.824543	8.4910
1140.350342	50.789097	9.4023
1148.613770	50.763519	10.4963
1156.937134	50.788742	11.5548
1165.320801	50.946312	12.3379
1173.765137	51.108391	12.9725
1182.270752	51.130665	13.4656
1190.838013	51.139908	13.9429
1199.467285	51.226738	14.6410
1208.159180	51.360378	15.2371
1216.913940	51.571194	15.4169
1225.732178	51.764408	15.3814
1234.614380	51.817642	15.2021
1243.560913	51.841892	14.9619
1252.572266	51.931889	14.7958
1261.648926	52.017700	14.6198
1270.791382	52.046555	14.3717
1280.000000	52.058956	14.1180
1289.275391	52.084465	13.9180
1298.618042	52.104935	13.7328
1308.028320	52.109940	13.5363
1317.506836	52.105038	13.3478
1327.054077	52.095749	13.1688
1336.670410	52.072128	13.0265
1346.356567	52.025276	12.9171
1356.112793	51.957291	12.9346
1365.939697	51.854729	13.1759
1375.837891	51.755371	13.6296
1385.807739	51.689819	14.3699
1395.849854	51.666988	15.2364
1405.964844	51.714230	16.1317
1416.152954	51.806591	16.9383
1426.415039	51.945091	17.4433
1436.751465	52.078545	17.8356
1447.162720	52.113667	18.3026
1457.649414	52.176590	18.6430
1468.212158	52.428886	18.7011
1478.851440	52.675205	18.5212
1489.567871	52.728642	17.9919
1500.361816	52.719090	17.4270
1511.234131	52.721695	17.1526
1522.185059	52.719013	17.0263
1533.215454	52.715008	17.0179
1544.325806	52.718956	17.1104
1555.516602	52.738434	17.3135
1566.788574	52.782749	17.5182
1578.142090	52.880558	17.6003
1589.578003	52.981609	17.6131
1601.096680	53.027271	17.5595
1612.698975	53.069794	17.4694
1624.385254	53.152176	17.4028
1636.156250	53.245575	17.2728
1648.012451	53.334518	17.0155
1659.954590	53.420689	16.6188
1671.983398	53.518242	15.9892
1684.099243	53.574902	15.3078
1696.302856	53.513493	14.7029
1708.594971	53.421421	14.2416
1720.976196	53.367577	14.0927
1733.447144	53.333107	14.0799
1746.008423	53.327492	14.0797
1758.660645	53.332970	14.0959
1771.404663	53.333000	14.0807
1784.240967	53.333000	14.0680
1797.170288	53.332626	14.0733
1810.193359	53.332996	14.1058
1823.310791	53.330872	14.1951
1836.523193	53.338936	14.2956
1849.831421	53.376507	14.3724
1863.236084	53.420803	14.4228
1876.737793	53.448250	14.4390
1890.337524	53.479839	14.4033
1904.035645	53.541431	14.2839
1917.833008	53.595829	14.1147
1931.730469	53.603260	13.9002
1945.728638	53.596043	13.6988
1959.828125	53.596001	13.5831
1974.029907	53.596001	13.5162
1988.334473	53.594940	13.4825
2002.742798	53.595989	13.4889
2017.255493	53.600033	13.5450
2031.873291	53.612926	13.6276
2046.597168	53.639534	13.7436
2061.427734	53.683758	13.8129
2076.365479	53.765446	13.7347
2091.411865	53.841732	13.5768
2106.566895	53.859901	13.3654
2121.832031	53.867950	13.1270
2137.207764	53.908955	12.9048
2152.694824	53.946877	12.6749
2168.294189	53.951942	12.4128
2184.006592	53.947033	12.1631
2199.832764	53.946999	11.9726
2215.773682	53.946999	11.8116
