* Measurement data measured by REW V5.20 Beta 53
* Source: C:\Users\Napie\Music\REW\Top Speakers\New Folder\5-LW.txt
* Format: Comma/Tab/Space delimited data
* Dated: May 26, 2020 2:56:50 PM
* REW Settings:
*  C-weighting compensation: Off
*  Target level: 75.0 dB
* Note: ; Measurement imported from C:\Users\Napie\Music\REW\Top Speakers\New Folder\5-LW.txt Format: Comma/Tab/Space delimited data 623 values loaded, 5 Hz to 39,792 Hz log spaced 
* Measurement: 5-LW
* Smoothing: None
* Frequency Step: 1/96 octave
* Start Frequency: 20.000 Hz
*
* Freq(Hz)	SPL(dB)	Phase(degrees)
20.000000	56.406666	15.4812
20.144928	56.757179	14.2533
20.290907	57.107689	12.9822
20.437943	57.458241	11.6696
20.586044	57.808754	10.2880
20.735220	58.159195	8.8440
20.885475	58.509590	7.2360
21.036821	58.892929	5.2731
21.189262	59.210674	3.2276
21.342808	59.342213	1.1922
21.497467	59.385983	-0.4833
21.653246	59.371578	-1.3430
21.810154	59.385933	-1.6120
21.968201	59.520073	-1.1615
22.127390	59.791611	-0.5985
22.287735	60.323353	-0.5504
22.449242	60.890572	-0.8316
22.611917	61.252922	-1.5816
22.775772	61.578598	-2.4490
22.940815	61.957352	-2.9935
23.107054	62.385391	-3.6200
23.274498	62.935734	-4.6898
23.443153	63.467327	-5.8983
23.613033	63.773365	-6.9497
23.784142	64.122635	-8.1748
23.956491	64.834457	-9.7800
24.130091	65.553238	-11.8453
24.304947	65.970505	-14.7376
24.481071	66.261673	-17.8030
24.658470	66.489334	-20.4289
24.837156	66.685722	-22.8538
25.017136	66.925400	-25.1281
25.198421	67.143799	-27.2080
25.381020	67.269699	-29.0585
25.564941	67.396858	-30.7025
25.750195	67.613182	-32.0862
25.936790	67.865662	-33.4053
26.124741	68.141548	-34.9049
26.314051	68.407631	-36.3839
26.504732	68.584755	-37.6441
26.696796	68.797684	-38.9194
26.890253	69.211372	-40.4077
27.085112	69.627556	-42.0221
27.281382	69.831329	-43.7231
27.479073	70.035667	-45.5644
27.678198	70.462700	-47.5866
27.878765	70.872490	-49.7897
28.080786	71.045517	-52.3158
28.284271	71.139900	-54.7787
28.489231	71.241425	-56.7512
28.695675	71.349838	-58.4957
28.903616	71.503456	-60.1183
29.113064	71.671753	-61.6648
29.324028	71.835045	-63.2289
29.536524	71.998802	-64.7722
29.750557	72.161819	-66.2849
29.966141	72.324814	-67.7743
30.183289	72.488304	-69.2421
30.402010	72.651794	-70.6952
30.622314	72.818481	-72.1575
30.844217	72.977814	-73.5803
31.067726	73.110321	-74.9135
31.292856	73.245789	-76.1851
31.519617	73.415070	-77.3903
31.748020	73.595787	-78.5775
31.978081	73.775719	-79.8140
32.209808	73.954758	-81.0394
32.443211	74.118141	-82.1784
32.678310	74.297745	-83.3424
32.915108	74.544792	-84.6330
33.153625	74.786720	-86.0052
33.393871	74.953972	-87.5142
33.635857	75.087807	-88.9599
33.879597	75.189224	-90.1021
34.125103	75.309799	-91.1147
34.372387	75.522659	-92.0610
34.621464	75.764618	-93.0355
34.872345	75.991676	-94.1821
35.125042	76.218727	-95.4155
35.379574	76.446175	-96.6928
35.635948	76.673737	-98.0284
35.894180	76.901268	-99.4118
36.154285	77.128662	-100.8738
36.416275	77.366516	-102.4798
36.680161	77.582703	-104.1145
36.945961	77.725357	-105.6722
37.213688	77.863770	-107.1878
37.483353	78.066803	-108.6176
37.754974	78.284668	-110.0916
38.028561	78.497025	-111.7825
38.304131	78.683769	-113.5207
38.581699	78.798355	-115.1916
38.861279	78.899834	-116.8006
39.142883	79.045654	-118.2950
39.426529	79.194809	-119.7361
39.712231	79.316833	-121.1743
40.000000	79.436821	-122.5899
40.289856	79.579163	-123.9944
40.581814	79.715820	-125.3451
40.875885	79.810860	-126.5989
41.172089	79.911835	-127.7693
41.470440	80.060860	-128.8175
41.770950	80.238686	-129.8572
42.073643	80.436928	-130.9482
42.378525	80.664650	-132.2150
42.685616	80.960663	-133.8668
42.994934	81.227661	-135.7103
43.306492	81.340378	-137.6325
43.620308	81.420868	-139.6000
43.936401	81.590126	-141.5661
44.254780	81.727837	-143.4581
44.575470	81.700317	-145.1684
44.898483	81.667007	-146.7546
45.223835	81.794472	-148.2062
45.551544	81.929832	-149.6199
45.881630	81.946449	-151.1615
46.214108	81.930031	-152.6139
46.548996	81.930000	-153.7973
46.886307	81.930000	-154.7637
47.226067	81.917320	-155.4853
47.568283	81.929947	-156.0222
47.912983	82.006577	-156.3721
48.260181	82.132744	-156.6954
48.609894	82.318306	-157.1606
48.962143	82.528679	-157.7420
49.316940	82.723251	-158.4672
49.674313	82.929657	-159.3444
50.034271	83.178230	-160.4025
50.396843	83.420654	-161.6081
50.762039	83.609467	-162.9817
51.129883	83.771744	-164.3896
51.500389	83.907509	-165.6659
51.873581	84.050728	-166.9258
52.249481	84.250893	-168.2109
52.628101	84.461655	-169.5776
53.009464	84.651001	-171.1205
53.393593	84.824715	-172.7661
53.780506	84.980942	-174.4958
54.170223	85.110817	-176.2381
54.562763	85.197876	-177.9409
54.958145	85.262901	-179.5276
55.356396	85.305916	179.1536
55.757530	85.372856	177.9300
56.161572	85.533272	176.7057
56.568542	85.716705	175.4013
56.978462	85.871124	173.8649
57.391350	86.009766	172.2181
57.807232	86.128548	170.5179
58.226128	86.227837	168.8079
58.648056	86.302132	167.1442
59.073048	86.364891	165.5456
59.501114	86.421265	164.0832
59.932281	86.490845	162.6555
60.366577	86.605850	161.2074
60.804020	86.733788	159.6698
61.244629	86.860054	157.9136
61.688435	86.962852	156.0642
62.135452	87.004761	154.1819
62.585712	87.017990	152.3341
63.039234	87.021439	150.6255
63.496040	87.018005	149.0056
63.956161	87.017998	147.4663
64.419617	87.017998	145.9846
64.886421	87.017998	144.5413
65.356621	87.017998	143.1176
65.830215	87.026306	141.6592
66.307251	87.018044	140.2516
66.787743	86.954315	138.9610
67.271713	86.885109	137.7930
67.759193	86.855225	136.7992
68.250206	86.842010	135.9075
68.744774	86.828323	135.0974
69.242928	86.841949	134.2655
69.744690	86.929825	133.2886
70.250084	87.017853	132.2052
70.759148	87.034500	130.9504
71.271896	87.018066	129.7112
71.788361	86.974083	128.6688
72.308571	86.930077	127.7766
72.832550	86.908073	127.1281
73.360321	86.929901	126.4823
73.891922	87.061234	125.5990
74.427376	87.192795	124.5661
74.966705	87.209450	123.3345
75.509949	87.193039	122.0773
76.057121	87.193001	120.9854
76.608261	87.193001	119.9580
77.163399	87.193001	118.9548
77.722557	87.193001	117.9829
78.285767	87.193001	117.0373
78.853058	87.193001	116.1148
79.424461	87.193001	115.2104
80.000000	87.193001	114.3247
80.579712	87.193001	113.4564
81.163628	87.193001	112.6056
81.751770	87.193001	111.7708
82.344177	87.193001	110.9547
82.940880	87.193001	110.1592
83.541901	87.193008	109.3845
84.147285	87.193001	108.6297
84.757050	87.193001	107.9004
85.371231	87.193001	107.1930
85.989868	87.193001	106.5343
86.612984	87.182068	105.9910
87.240616	87.192947	105.4401
87.872803	87.280312	104.7677
88.509560	87.367844	104.0126
89.150940	87.378944	103.1361
89.796967	87.368027	102.2587
90.447670	87.367996	101.5069
91.103088	87.367996	100.8253
91.763260	87.367996	100.1800
92.428215	87.367996	99.6330
93.097992	87.344948	99.3205
93.772614	87.367874	98.9878
94.452133	87.547722	98.4141
95.136566	87.736664	97.6298
95.825966	87.794998	96.5058
96.520363	87.806999	95.3015
97.219788	87.811378	94.2659
97.924286	87.807022	93.3049
98.633881	87.806999	92.4123
99.348625	87.806999	91.5706
100.068542	87.806999	90.7596
100.793686	87.806999	89.9819
101.524078	87.806999	89.2258
102.259766	87.806999	88.5137
103.000778	87.796822	87.9044
103.747162	87.806946	87.2773
104.498962	87.887589	86.5301
105.256203	87.969872	85.6637
106.018929	87.997116	84.5673
106.787186	87.982079	83.4750
107.561012	87.895416	82.6158
108.340446	87.807121	81.8970
109.125526	87.796051	81.3409
109.916290	87.806976	80.8289
110.712791	87.806999	80.2277
111.515060	87.806999	79.6043
112.323143	87.806999	78.9834
113.137085	87.806999	78.3603
113.956924	87.806999	77.7392
114.782700	87.806999	77.1165
115.614464	87.806999	76.4955
116.452255	87.806999	75.8592
117.296112	87.816116	75.1493
118.146095	87.807053	74.4922
119.002228	87.725075	74.0407
119.864563	87.661095	73.6600
120.733154	87.724678	73.2873
121.608040	87.806839	72.8571
122.489258	87.816132	72.2312
123.376869	87.807030	71.5636
124.270905	87.806999	70.9799
125.171425	87.806999	70.4300
126.078468	87.805061	69.9046
126.992081	87.806992	69.4040
127.912323	87.813469	68.9600
128.839233	87.837921	68.4691
129.772842	87.911781	67.8303
130.713242	87.981888	67.0667
131.660431	88.001945	66.1008
132.614502	87.982117	65.1335
133.575485	87.894714	64.3835
134.543427	87.807137	63.7231
135.518387	87.809975	63.0834
136.500412	87.807037	62.5040
137.489548	87.698257	61.9908
138.485855	87.584244	61.5768
139.489380	87.555344	61.3303
140.500168	87.544029	61.1514
141.518295	87.501984	60.9323
142.543793	87.460091	60.7633
143.576721	87.428169	60.7423
144.617142	87.421974	60.7410
145.665100	87.479271	60.6425
146.720642	87.543839	60.5084
147.783844	87.545624	60.3830
148.854752	87.562904	60.2026
149.933411	87.682617	59.9240
151.019897	87.810715	59.5291
152.114243	87.859154	58.9614
153.216522	87.894890	58.2930
154.326797	87.971611	57.5957
155.445114	88.042854	56.8159
156.571533	88.077957	55.8820
157.706116	88.082031	54.9172
158.848923	88.045502	53.9971
160.000000	87.982178	53.1947
161.159424	87.888458	52.6480
162.327255	87.807137	52.2378
163.503540	87.796051	51.9176
164.688354	87.806976	51.6057
165.881760	87.806999	51.1872
167.083801	87.806999	50.7153
168.294571	87.809059	50.2098
169.514099	87.807014	49.6584
170.742462	87.804916	48.9968
171.979736	87.774132	48.4004
173.225967	87.647820	48.0888
174.481232	87.544151	47.8685
175.745605	87.608856	47.6406
177.019119	87.694824	47.3359
178.301880	87.673019	46.8060
179.593933	87.632111	46.1886
180.895340	87.639061	45.5800
182.206177	87.632050	44.9575
183.526520	87.560646	44.2752
184.856430	87.456261	43.6971
186.195984	87.316948	43.4297
187.545227	87.193245	43.3012
188.904266	87.164917	43.1962
190.273132	87.143089	43.1490
191.651932	87.033669	43.1504
193.040726	86.930229	43.2177
194.439575	86.916679	43.4067
195.848572	86.929947	43.5936
197.267761	86.924507	43.6797
198.697250	86.929970	43.6432
200.137085	86.985435	43.4057
201.587372	87.017982	43.0400
203.048157	86.964676	42.4582
204.519531	86.833496	42.0646
206.001556	86.561752	42.2758
207.494324	86.298531	42.9738
208.997925	86.189064	44.3176
210.512405	86.184883	45.8853
212.037857	86.295815	47.3418
213.574371	86.490440	48.5804
215.122025	86.749458	49.3992
216.680893	87.046165	49.7498
218.251053	87.374802	49.4227
219.832581	87.653320	48.6995
221.425583	87.767990	47.7048
223.030121	87.806961	46.7044
224.646286	87.804260	46.0957
226.274170	87.810921	45.6112
227.913849	87.918076	45.1439
229.565399	88.039726	44.6035
231.228928	88.118279	43.7845
232.904510	88.157959	42.9245
234.592224	88.123566	42.2063
236.292191	88.076111	41.5924
238.004456	88.077164	41.1405
239.729126	88.090965	40.7460
241.466309	88.099289	40.3212
243.216080	88.109970	39.8712
244.978516	88.132759	39.3588
246.753738	88.144005	38.8245
248.541809	88.120171	38.2534
250.342850	88.070168	37.7751
252.156937	87.978119	37.5403
253.984161	87.895164	37.4730
255.824646	87.875366	37.6030
257.678467	87.894897	37.7617
259.545685	87.956566	37.7873
261.426483	88.033798	37.6865
263.320862	88.104515	37.3750
265.229004	88.157883	36.9652
267.150970	88.165756	36.5413
269.086853	88.158028	36.1042
271.036774	88.174416	35.6202
273.000824	88.158127	35.2767
274.979095	88.013924	35.3001
276.971710	87.895203	35.5430
278.978760	87.962997	36.0338
281.000336	88.102570	36.4671
283.036591	88.251427	36.5099
285.087585	88.410515	36.2692
287.153442	88.570374	35.6995
289.234283	88.700714	34.9293
291.330200	88.754539	34.0460
293.441284	88.771996	33.1285
295.567688	88.781937	32.2844
297.709503	88.772064	31.5159
299.866821	88.728142	30.8766
302.039795	88.684105	30.3195
304.228485	88.676865	29.8539
306.433044	88.683960	29.3635
308.653595	88.709694	28.6880
310.890228	88.710060	27.9670
313.143066	88.627914	27.2306
315.412231	88.506371	26.6493
317.697845	88.353432	26.4540
320.000000	88.218338	26.4956
322.318848	88.164581	26.7594
324.654510	88.157959	27.0701
327.007080	88.192657	27.2394
329.376709	88.245827	27.2901
331.763519	88.294861	27.1468
334.167603	88.332909	26.9188
336.589142	88.328384	26.7379
339.028198	88.332947	26.4630
341.484924	88.434235	25.9149
343.959473	88.493973	25.3345
346.451935	88.339005	24.8818
348.962463	88.158440	24.6254
351.491211	88.116531	24.7849
354.038239	88.118965	25.0662
356.603760	88.122849	25.2086
359.187866	88.134956	25.3247
361.790680	88.142349	25.4520
364.412354	88.161926	25.5597
367.053040	88.209770	25.6562
369.712860	88.275780	25.6602
372.391968	88.365044	25.4810
375.090454	88.447800	25.1542
377.808533	88.500153	24.6138
380.546265	88.509056	24.0745
383.303864	88.425087	23.7471
386.081451	88.333229	23.5802
388.879150	88.321991	23.6209
391.697144	88.332954	23.7814
394.535522	88.314644	24.0294
397.394501	88.332855	24.2445
400.274170	88.470459	24.3102
403.174744	88.626541	24.1808
406.096313	88.717651	23.7002
409.039062	88.771889	23.0830
412.003113	88.786568	22.4761
414.988647	88.772087	21.9305
417.995850	88.728157	21.5638
421.024811	88.684113	21.3236
424.075714	88.672997	21.2278
427.148743	88.683929	21.1821
430.244049	88.716919	21.1250
433.361786	88.771797	20.9747
436.502106	88.866333	20.5988
439.665161	88.946815	20.0868
442.851166	88.954285	19.4246
446.060242	88.921150	18.7937
449.292572	88.845123	18.4137
452.548340	88.772179	18.1597
455.827698	88.768173	17.9814
459.130798	88.772011	17.8702
462.457855	88.722656	17.8088
465.809021	88.684067	17.7731
469.184448	88.722343	17.7452
472.584381	88.771866	17.6892
476.008911	88.777512	17.5234
479.458252	88.772026	17.3665
482.932617	88.761078	17.3633
486.432159	88.771912	17.3571
489.957031	88.859200	17.2195
493.507477	88.946777	17.0048
497.083618	88.952263	16.7059
500.685699	88.946991	16.3800
504.313873	88.988914	16.1169
507.968323	89.037849	15.8131
511.649292	89.078217	15.3420
515.356934	89.093018	14.8595
519.091370	89.041641	14.4769
522.852966	88.979179	14.2037
526.641724	88.954544	14.1172
530.458008	88.946991	14.1239
534.301941	88.948837	14.1638
538.173706	88.968895	14.2119
542.073547	89.017677	14.2338
546.001648	89.082756	14.1982
549.958191	89.156433	14.0561
553.943420	89.234749	13.8259
557.957520	89.309189	13.5164
562.000671	89.385742	13.1095
566.073181	89.473770	12.5873
570.175171	89.554749	11.9573
574.306885	89.612404	11.2028
578.468567	89.648918	10.3789
582.660400	89.662376	9.5132
586.882568	89.649094	8.6728
591.135376	89.596397	7.9288
595.419006	89.529228	7.2979
599.733643	89.465950	6.8486
604.079590	89.414146	6.4961
608.456970	89.392860	6.1908
612.866089	89.386009	5.8931
617.307190	89.384247	5.5405
621.780457	89.385994	5.1514
626.286133	89.386002	4.7241
630.824463	89.386002	4.2566
635.395691	89.387062	3.7500
640.000000	89.386009	3.1930
644.637695	89.381966	2.5752
649.309021	89.369064	1.8954
654.014160	89.347923	1.1135
658.753418	89.298225	0.3365
663.527039	89.184181	-0.3467
668.335205	89.052437	-0.9193
673.178284	88.943542	-1.3033
678.056396	88.841347	-1.5931
682.969849	88.749756	-1.8862
687.918945	88.648376	-2.0974
692.903870	88.503952	-2.1788
697.924927	88.358475	-2.1145
702.982422	88.245728	-1.8365
708.076477	88.158249	-1.4525
713.207520	88.107140	-1.0635
718.375732	88.070122	-0.6237
723.581360	88.015167	-0.1194
728.824707	87.982056	0.4469
734.106079	87.995865	1.1624
739.425720	88.069603	1.7732
744.783936	88.256897	2.0440
750.180908	88.461304	2.0018
755.617065	88.591599	1.5295
761.092529	88.683731	0.8268
766.607727	88.742531	0.0586
772.162903	88.771950	-0.7839
777.758301	88.783081	-1.6793
783.394287	88.759163	-2.5551
789.071045	88.679344	-3.3684
794.789001	88.566452	-4.0082
800.548340	88.418953	-4.2985
806.349487	88.289383	-4.3889
812.192627	88.251007	-4.3552
818.078125	88.241013	-4.2474
824.006226	88.197678	-4.1108
829.977295	88.188927	-4.0361
835.991699	88.289818	-4.0861
842.049622	88.419525	-4.3893
848.151428	88.529030	-5.1764
854.297485	88.595871	-6.2050
860.488098	88.562042	-7.3177
866.723572	88.485321	-8.4827
873.004211	88.425217	-9.6448
879.330322	88.320496	-10.7183
885.702332	88.101189	-11.6182
892.120483	87.850891	-12.2861
898.585144	87.639801	-12.5944
905.096680	87.440720	-12.6671
911.655396	87.244644	-12.5767
918.261597	87.065628	-12.3530
924.915710	86.924370	-12.0640
931.618042	86.792488	-11.6677
938.368896	86.630455	-11.1320
945.168762	86.491432	-10.4946
952.017822	86.423409	-9.7197
958.916504	86.403984	-8.9965
965.865234	86.441879	-8.5186
972.864319	86.490829	-8.2396
979.914062	86.501877	-8.2089
987.014954	86.491081	-8.3313
994.167236	86.467461	-8.5739
1001.371399	86.404312	-8.7993
1008.627747	86.253838	-8.8585
1015.936646	86.087677	-8.7538
1023.298584	85.973511	-8.4027
1030.713867	85.877296	-7.9127
1038.182739	85.782204	-7.3673
1045.705933	85.702301	-6.7607
1053.283447	85.647255	-6.0944
1060.916016	85.614090	-5.4288
1068.603882	85.608490	-4.8273
1076.347412	85.613968	-4.2851
1084.147095	85.613998	-3.8269
1092.003296	85.613998	-3.4263
1099.916382	85.613998	-3.0557
1107.886841	85.613998	-2.7412
1115.915039	85.624916	-2.5406
1124.001343	85.614105	-2.3318
1132.146362	85.528793	-2.0020
1140.350342	85.439293	-1.5768
1148.613770	85.419731	-1.0367
1156.937134	85.408073	-0.4078
1165.320801	85.351257	0.2510
1173.765137	85.294220	1.0570
1182.270752	85.248154	2.1981
1190.838013	85.262764	3.4081
1199.467285	85.420090	4.5336
1208.159180	85.635094	5.4172
1216.913940	85.856178	5.7859
1225.732178	86.062325	5.8334
1234.614380	86.205673	5.6401
1243.560913	86.315636	5.2796
1252.572266	86.416542	4.8131
1261.648926	86.476860	4.3567
1270.791382	86.446548	4.0532
1280.000000	86.404129	3.8854
1289.275391	86.420555	3.9605
1298.618042	86.470718	4.0468
1308.028320	86.572746	3.9089
1317.506836	86.666672	3.6592
1327.054077	86.679268	3.3077
1336.670410	86.667061	2.9324
1346.356567	86.677856	2.5958
1356.112793	86.667107	2.3546
1365.939697	86.580490	2.2876
1375.837891	86.493294	2.3912
1385.807739	86.471313	2.7559
1395.849854	86.490837	3.1783
1405.964844	86.562439	3.4661
1416.152954	86.647697	3.6724
1426.415039	86.701752	3.7629
1436.751465	86.753784	3.8119
1447.162720	86.812729	3.9286
1457.649414	86.895599	3.9741
1468.212158	87.038963	3.8560
1478.851440	87.193428	3.5387
1489.567871	87.319115	2.9360
1500.361816	87.422646	2.1086
1511.234131	87.513969	1.0151
1522.185059	87.544052	-0.1230
1533.215454	87.430138	-1.0975
1544.325806	87.281639	-1.9059
1555.516602	87.207489	-2.4594
1566.788574	87.130379	-2.8119
1578.142090	86.981575	-2.9913
1589.578003	86.840508	-2.9884
1601.096680	86.775551	-2.7419
1612.698975	86.754005	-2.4352
1624.385254	86.768990	-2.2253
1636.156250	86.809776	-2.1331
1648.012451	86.867744	-2.2260
1659.954590	86.929779	-2.5195
1671.983398	86.995316	-3.1198
1684.099243	87.018036	-3.8210
1696.302856	86.919151	-4.4499
1708.594971	86.794556	-5.0106
1720.976196	86.741364	-5.4430
1733.447144	86.680344	-5.7708
1746.008423	86.535652	-5.9945
1758.660645	86.390541	-6.1257
1771.404663	86.327713	-6.1509
1784.240967	86.276237	-6.1450
1797.170288	86.181282	-6.2101
1810.193359	86.074425	-6.2529
1823.310791	85.972084	-6.2078
1836.523193	85.866417	-6.0916
1849.831421	85.753242	-5.9088
1863.236084	85.637527	-5.6335
1876.737793	85.518318	-5.2258
1890.337524	85.409431	-4.7313
1904.035645	85.332977	-4.1938
1917.833008	85.263275	-3.5796
1931.730469	85.163559	-2.8388
1945.728638	85.088226	-2.0624
1959.828125	85.104988	-1.3182
1974.029907	85.138870	-0.6278
1988.334473	85.122414	-0.0708
2002.742798	85.098091	0.4608
2017.255493	85.087769	1.0724
2031.873291	85.087975	1.6955
2046.597168	85.106026	2.2902
2061.427734	85.130882	2.8735
2076.365479	85.144051	3.4800
