* Measurement data measured by REW V5.20 Beta 53
* Source: C:\Users\Napie\Music\REW\Top Speakers\New Folder\4-ER.txt
* Format: Comma/Tab/Space delimited data
* Dated: May 26, 2020 2:52:51 PM
* REW Settings:
*  C-weighting compensation: Off
*  Target level: 75.0 dB
* Note: ; Measurement imported from C:\Users\Napie\Music\REW\Top Speakers\New Folder\4-ER.txt Format: Comma/Tab/Space delimited data 623 values loaded, 5 Hz to 39,792 Hz log spaced 
* Measurement: 4-ER
* Smoothing: None
* Frequency Step: 1/96 octave
* Start Frequency: 20.000 Hz
*
* Freq(Hz)	SPL(dB)	Phase(degrees)
20.000000	60.472916	135.3360
20.144928	60.565540	135.3437
20.290907	60.653923	135.3580
20.437943	60.722759	135.4364
20.586044	60.800938	135.4820
20.735220	60.941818	135.3581
20.885475	61.056900	135.2411
21.036821	61.028053	135.2711
21.189262	60.997013	135.4207
21.342808	61.099159	135.7815
21.497467	61.236824	136.1356
21.653246	61.355164	136.2389
21.810154	61.459869	136.2610
21.968201	61.531231	136.2849
22.127390	61.590935	136.3279
22.287735	61.656002	136.4461
22.449242	61.720951	136.6069
22.611917	61.785873	136.7939
22.775772	61.850922	137.0137
22.940815	61.916412	137.2657
23.107054	61.981911	137.5556
23.274498	62.046970	137.8834
23.443153	62.111912	138.2654
23.613033	62.176174	138.7021
23.784142	62.241943	139.2415
23.956491	62.297619	139.9643
24.130091	62.383873	140.7730
24.304947	62.546078	141.6525
24.481071	62.758686	142.4361
24.658470	63.020618	142.9584
24.837156	63.303604	143.1999
25.017136	63.591286	143.0275
25.198421	63.846767	142.6165
25.381020	64.008125	142.0781
25.564941	64.133896	141.4736
25.750195	64.271667	140.9212
25.936790	64.392860	140.3607
26.124741	64.486076	139.7357
26.314051	64.546936	139.1518
26.504732	64.556625	138.6923
26.696796	64.547012	138.3683
26.890253	64.546997	138.2339
27.085112	64.546997	138.2429
27.281382	64.546997	138.3545
27.479073	64.546989	138.6065
27.678198	64.536125	139.0524
27.878765	64.546959	139.6052
28.080786	64.625122	140.1901
28.284271	64.720863	140.8241
28.489231	64.772415	141.5516
28.695675	64.860832	142.2162
28.903616	65.093521	142.6631
29.113064	65.330696	142.9297
29.324028	65.437775	142.9255
29.536524	65.504929	142.8800
29.750557	65.579475	143.0410
29.966141	65.656906	143.2657
30.183289	65.757500	143.4821
30.402010	65.853882	143.7247
30.622314	65.916306	143.9909
30.844217	65.971931	144.3215
31.067726	66.039894	144.7691
31.292856	66.114876	145.2961
31.519617	66.196693	145.8849
31.748020	66.288895	146.5292
31.978081	66.394173	147.2251
32.209808	66.514824	147.9481
32.443211	66.655670	148.6763
32.678310	66.811790	149.3981
32.915108	66.976158	150.1134
33.153625	67.159752	150.7643
33.393871	67.386116	151.2655
33.635857	67.610664	151.6974
33.879597	67.774330	152.1190
34.125103	67.943748	152.5085
34.372387	68.182823	152.9027
34.621464	68.441597	153.1837
34.872345	68.697845	153.1845
35.125042	68.931740	153.0882
35.379574	69.089264	153.0587
35.635948	69.250786	152.9891
35.894180	69.510330	152.8518
36.154285	69.773636	152.5715
36.416275	69.972672	151.9780
36.680161	70.121811	151.3280
36.945961	70.193108	150.8423
37.213688	70.245926	150.4615
37.483353	70.347214	150.2189
37.754974	70.446854	150.0542
38.028561	70.510612	149.8849
38.304131	70.556946	149.8110
38.581699	70.587769	149.9152
38.861279	70.618950	150.1675
39.142883	70.670418	150.5687
39.426529	70.731911	151.1092
39.712231	70.790031	151.8056
40.000000	70.873856	152.5798
40.289856	71.025131	153.3509
40.581814	71.192757	154.1439
40.875885	71.320175	154.9572
41.172089	71.464752	155.7897
41.470440	71.678619	156.6612
41.770950	71.921577	157.5076
42.073643	72.155182	158.3154
42.378525	72.425575	158.9533
42.685616	72.804779	159.2522
42.994934	73.177505	159.3111
43.306492	73.418930	159.1328
43.620308	73.628677	158.8375
43.936401	73.885040	158.5700
44.254780	74.128632	158.2595
44.575470	74.321091	157.8299
44.898483	74.476784	157.4415
45.223835	74.586166	157.2314
45.551544	74.682854	157.1959
45.881630	74.793076	157.4327
46.214108	74.929756	157.7744
46.548996	75.137718	158.0555
46.886307	75.347687	158.3675
47.226067	75.477242	158.7358
47.568283	75.609749	159.1942
47.912983	75.818871	159.8059
48.260181	76.052597	160.5078
48.609894	76.265083	161.2663
48.962143	76.510590	162.0548
49.316940	76.836441	162.8953
49.674313	77.218346	163.6080
50.034271	77.655800	164.0398
50.396843	78.124268	164.1312
50.762039	78.617775	163.7136
51.129883	79.080246	162.9616
51.500389	79.443100	161.8962
51.873581	79.737534	160.8098
52.249481	79.936554	160.0827
52.628101	80.146606	159.4750
53.009464	80.507660	158.9108
53.393593	80.893349	158.2732
53.780506	81.204437	157.3692
54.170223	81.497528	156.3517
54.562763	81.803192	155.3248
54.958145	82.101540	154.2448
55.356396	82.382622	153.0811
55.757530	82.646584	151.8970
56.161572	82.883492	150.7504
56.568542	83.113617	149.6278
56.978462	83.357506	148.5476
57.391350	83.604546	147.4720
57.807232	83.850555	146.3667
58.226128	84.096581	145.2400
58.648056	84.342148	144.0899
59.073048	84.587593	142.9130
59.501114	84.833008	141.7066
59.932281	85.078560	140.4662
60.366577	85.324562	139.1876
60.804020	85.570580	137.8673
61.244629	85.816078	136.5025
61.688435	86.061569	135.0875
62.135452	86.307571	133.6188
62.585712	86.553581	132.0867
63.039234	86.799149	130.4861
63.496040	87.044594	128.7999
63.956161	87.290009	127.0266
64.419617	87.535561	125.1146
64.886421	87.793495	122.9906
65.356621	88.027618	120.7172
65.830215	88.197594	118.3049
66.307251	88.327789	115.8367
66.787743	88.433594	113.3805
67.271713	88.501915	110.9942
67.759193	88.512878	108.7486
68.250206	88.502022	106.6735
68.744774	88.491127	104.8860
69.242928	88.501945	103.1949
69.744690	88.588837	101.4362
70.250084	88.675858	99.6435
70.759148	88.686882	97.7594
71.271896	88.676041	95.8924
71.788361	88.676003	94.1581
72.308571	88.676003	92.4792
72.832550	88.676003	90.8250
73.360321	88.676010	89.1691
73.891922	88.685310	87.4448
74.427376	88.676048	85.7412
74.966705	88.603210	84.1449
75.509949	88.527130	82.5968
76.057121	88.518822	81.0631
76.608261	88.502060	79.5540
77.163399	88.405289	78.0296
77.722557	88.284241	76.6067
78.285767	88.172470	75.4142
78.853058	88.066200	74.3769
79.424461	87.968483	73.4918
80.000000	87.892120	72.6696
80.579712	87.865601	71.8084
81.163628	87.845047	70.9427
81.751770	87.778702	70.0848
82.344177	87.718094	69.1999
82.940880	87.723236	68.2387
83.541901	87.718048	67.2560
84.147285	87.621346	66.2637
84.757050	87.507217	65.3407
85.371231	87.431702	64.6102
85.989868	87.369118	63.9513
86.612984	87.316040	63.2638
87.240616	87.261124	62.6073
87.872803	87.182846	62.0137
88.509560	87.108147	61.4671
89.150940	87.064949	60.9673
89.796967	87.029068	60.4979
90.447670	86.976662	60.0567
91.103088	86.934067	59.6010
91.763260	86.937798	59.0667
92.428215	86.934036	58.5161
93.097992	86.862793	57.9634
93.772614	86.778160	57.4888
94.452133	86.715355	57.2180
95.136566	86.672066	57.0293
95.825966	86.665367	56.8365
96.520363	86.671989	56.6574
97.219788	86.661507	56.5040
97.924286	86.671936	56.3095
98.633881	86.749947	56.0211
99.348625	86.839821	55.6080
100.068542	86.897392	54.9743
100.793686	86.933937	54.2628
101.524078	86.933632	53.6149
102.259766	86.933983	52.9407
103.000778	86.990120	52.1773
103.747162	87.033943	51.3825
104.498962	86.990349	50.5816
105.256203	86.934097	49.8104
106.018929	86.927742	49.1635
106.787186	86.933983	48.4904
107.561012	86.950363	47.6043
108.340446	86.934067	46.7054
109.125526	86.814102	45.9113
109.916290	86.672249	45.2849
110.712791	86.568802	45.0005
111.515060	86.498100	44.8413
112.323143	86.487122	44.6617
113.137085	86.497971	44.4196
113.956924	86.508873	43.9625
114.782700	86.498077	43.4762
115.614464	86.411209	43.1102
116.452255	86.324135	42.8235
117.296112	86.313110	42.6621
118.146095	86.323967	42.5114
119.002228	86.323997	42.2492
119.864563	86.323997	41.9419
120.733154	86.323997	41.6168
121.608040	86.323997	41.2698
122.489258	86.323997	40.9063
123.376869	86.323997	40.5239
124.270905	86.323997	40.1239
125.171425	86.324005	39.7008
126.078468	86.323997	39.2568
126.992081	86.323997	38.7701
127.912323	86.330177	38.2055
128.839233	86.324028	37.6042
129.772842	86.284096	36.9763
130.713242	86.225128	36.3811
131.660431	86.151192	35.8958
132.614502	86.073219	35.4771
133.575485	86.012466	35.0876
134.543427	85.942154	34.7855
135.518387	85.824905	34.6271
136.500412	85.713181	34.5810
137.489548	85.661201	34.6540
138.485855	85.627075	34.7866
139.489380	85.578232	34.9174
140.500168	85.540062	35.0587
141.518295	85.534561	35.2096
142.543793	85.539986	35.3487
143.576721	85.540001	35.4338
144.617142	85.540001	35.5258
145.665100	85.530441	35.7011
146.720642	85.539932	35.8716
147.783844	85.609535	35.9801
148.854752	85.692795	36.0090
149.933411	85.745499	35.9214
151.019897	85.800850	35.7186
152.114243	85.895012	35.3729
153.216522	85.975822	34.9353
154.326797	85.986938	34.4226
155.445114	85.976028	33.9111
156.571533	85.975998	33.5053
157.706116	85.975998	33.1388
158.848923	85.975998	32.7804
160.000000	85.975998	32.4278
161.159424	85.975998	32.0768
162.327255	85.975998	31.7029
163.503540	85.985550	31.2453
164.688354	85.976051	30.8089
165.881760	85.901077	30.4847
167.083801	85.823166	30.2545
168.294571	85.802460	30.1655
169.514099	85.801003	30.1111
170.742462	85.799629	29.9857
171.979736	85.800995	29.8314
173.225967	85.801003	29.6546
174.481232	85.801003	29.4585
175.745605	85.801003	29.2505
177.019119	85.801003	29.0236
178.301880	85.801003	28.7827
179.593933	85.801010	28.4988
180.895340	85.812180	28.1060
182.206177	85.801071	27.7189
183.526520	85.716843	27.4252
184.856430	85.622200	27.2403
186.195984	85.569908	27.2622
187.545227	85.540039	27.3299
188.904266	85.545738	27.2667
190.273132	85.540054	27.2151
191.651932	85.453255	27.2591
193.040726	85.366196	27.4005
194.439575	85.351738	27.7166
195.848572	85.365936	28.0631
197.267761	85.390862	28.2946
198.697250	85.419937	28.4886
200.137085	85.433090	28.6798
201.587372	85.452942	28.8536
203.048157	85.501724	29.0177
204.519531	85.560829	29.1387
206.001556	85.617279	29.1833
207.494324	85.675858	29.1581
208.997925	85.743538	29.0372
210.512405	85.800888	28.8854
212.037857	85.815849	28.7720
213.574371	85.832932	28.6583
215.122025	85.901924	28.5373
216.680893	85.975807	28.3815
218.251053	86.013351	28.1518
219.832581	86.045898	27.8749
221.425583	86.102219	27.5580
223.030121	86.149910	27.2209
224.646286	86.156509	26.8628
226.274170	86.150024	26.5517
227.913849	86.138824	26.4155
229.565399	86.149925	26.2744
231.228928	86.243553	25.9660
232.904510	86.328819	25.5633
234.592224	86.312668	25.0247
236.292191	86.260162	24.5341
238.004456	86.200844	24.3070
239.729126	86.150108	24.2101
241.466309	86.143120	24.1895
243.216080	86.149979	24.2189
244.978516	86.144569	24.2533
246.753738	86.149971	24.2959
248.541809	86.183311	24.3674
250.342850	86.236824	24.3711
252.156937	86.321899	24.1883
253.984161	86.397842	23.9038
255.824646	86.414551	23.5375
257.678467	86.411026	23.1689
259.545685	86.411819	22.8974
261.426483	86.411003	22.6845
263.320862	86.405571	22.5457
265.229004	86.410965	22.4174
267.150970	86.454369	22.2344
269.086853	86.497894	22.0167
271.036774	86.503441	21.7431
273.000824	86.498024	21.4727
274.979095	86.498001	21.2677
276.971710	86.498001	21.0994
278.978760	86.498001	20.9532
281.000336	86.498001	20.8492
283.036591	86.492569	20.8146
285.087585	86.497955	20.8150
287.153442	86.530434	20.8577
289.234283	86.584824	20.8442
291.330200	86.675751	20.6499
293.441284	86.759804	20.3589
295.567688	86.782906	19.9936
297.709503	86.790985	19.6160
299.866821	86.815422	19.3270
302.039795	86.846893	19.0319
304.228485	86.893867	18.6535
306.433044	86.933907	18.2382
308.653595	86.939438	17.7959
310.890228	86.934013	17.3612
313.143066	86.933998	16.9846
315.412231	86.933998	16.6290
317.697845	86.935249	16.2704
320.000000	86.934006	15.9190
322.318848	86.925278	15.5769
324.654510	86.914040	15.2450
327.007080	86.904968	14.9278
329.376709	86.894028	14.6169
331.763519	86.881493	14.2864
334.167603	86.859093	13.9938
336.589142	86.807472	13.8011
339.028198	86.760117	13.6713
341.484924	86.753807	13.6053
343.959473	86.759979	13.5502
346.451935	86.760002	13.4398
348.962463	86.760002	13.3134
351.491211	86.760002	13.1878
354.038239	86.760002	13.0644
356.603760	86.760002	12.9448
359.187866	86.760002	12.8443
361.790680	86.754570	12.7972
364.412354	86.759964	12.7482
367.053040	86.801491	12.6506
369.712860	86.846878	12.5115
372.391968	86.863831	12.3137
375.090454	86.876961	12.0837
377.808533	86.907288	11.8377
380.546265	86.933937	11.5897
383.303864	86.932129	11.3691
386.081451	86.933968	11.1457
388.879150	86.975182	10.9066
391.697144	87.020874	10.6289
394.535522	87.040764	10.2808
397.394501	87.055962	9.8763
400.274170	87.088417	9.4027
403.174744	87.105980	8.9086
406.096313	87.072205	8.4168
409.039062	87.021172	7.9922
412.003113	86.972336	7.7386
414.988647	86.934097	7.5615
417.995850	86.928558	7.4085
421.024811	86.933975	7.2545
424.075714	86.933998	7.0468
427.148743	86.933990	6.8158
430.244049	86.933998	6.5758
433.361786	86.933990	6.3238
436.502106	86.933998	6.0617
439.665161	86.933998	5.7879
442.851166	86.933998	5.5028
446.060242	86.933990	5.2019
449.292572	86.933998	4.8863
452.548340	86.933998	4.5391
455.827698	86.939621	4.1274
459.130798	86.934044	3.7003
462.457855	86.894402	3.2838
465.809021	86.844162	2.9150
469.184448	86.796516	2.6692
472.584381	86.760078	2.4596
476.008911	86.754745	2.2432
479.458252	86.759979	1.9630
482.932617	86.772430	1.4955
486.432159	86.760109	0.9975
489.957031	86.664772	0.5937
493.507477	86.561287	0.2619
497.083618	86.522591	0.0582
500.685699	86.498077	-0.1293
504.313873	86.458519	-0.4161
507.968323	86.411171	-0.7380
511.649292	86.354637	-1.0714
515.356934	86.286247	-1.4079
519.091370	86.208427	-1.7703
522.852966	86.104401	-2.0423
526.641724	85.936272	-2.0955
530.458008	85.769501	-1.9876
534.301941	85.675583	-1.7094
538.173706	85.600243	-1.3354
542.073547	85.502892	-0.9504
546.001648	85.412292	-0.5156
549.958191	85.350060	-0.0135
553.943420	85.298157	0.5371
557.957520	85.242424	1.1140
562.000671	85.192162	1.7448
566.073181	85.157051	2.4108
570.175171	85.122131	3.2289
574.306885	85.038086	4.3970
578.468567	85.016876	5.6557
582.660400	85.203957	6.8437
586.882568	85.452133	7.8599
591.135376	85.623947	8.5690
595.419006	85.831184	8.9135
599.733643	86.192841	8.8061
604.079590	86.553841	8.2030
608.456970	86.788864	6.8862
612.866089	86.923737	5.2895
617.307190	86.925087	3.7347
621.780457	86.847343	2.3491
626.286133	86.717079	1.4327
630.824463	86.585381	0.7878
635.395691	86.531822	0.3517
640.000000	86.498108	0.0141
644.637695	86.449989	-0.3920
649.309021	86.393211	-0.7598
654.014160	86.314140	-1.0248
658.753418	86.237236	-1.2234
663.527039	86.190140	-1.3570
668.335205	86.150131	-1.4676
673.178284	86.104797	-1.6208
678.056396	86.050201	-1.7477
682.969849	85.974464	-1.8181
687.918945	85.889297	-1.7804
692.903870	85.796249	-1.5678
697.924927	85.714241	-1.1946
702.982422	85.651764	-0.5763
708.076477	85.641907	0.0579
713.207520	85.755089	0.4942
718.375732	85.888565	0.7674
723.581360	85.936920	0.8137
728.824707	85.975838	0.7175
734.106079	86.068100	0.5406
739.425720	86.149773	0.2890
744.783936	86.160889	-0.0488
750.180908	86.150055	-0.3590
755.617065	86.139389	-0.4719
761.092529	86.149902	-0.5646
766.607727	86.228989	-0.7475
772.162903	86.319687	-1.0556
777.758301	86.375969	-1.5901
783.394287	86.410919	-2.2615
789.071045	86.431244	-3.0591
794.789001	86.411171	-3.8453
800.548340	86.298943	-4.4442
806.349487	86.178375	-4.9573
812.192627	86.156700	-5.4619
818.078125	86.114258	-5.8598
824.006226	85.918999	-6.1016
829.977295	85.711655	-6.1164
835.991699	85.609016	-5.7320
842.049622	85.555122	-5.2020
848.151428	85.532341	-4.7256
854.297485	85.539917	-4.2994
860.488098	85.572777	-3.9664
866.723572	85.626770	-3.7843
873.004211	85.713318	-3.8764
879.330322	85.780823	-4.0911
885.702332	85.749718	-4.2944
892.120483	85.714066	-4.5520
898.585144	85.779800	-4.8820
905.096680	85.834877	-5.2963
911.655396	85.784431	-5.9083
918.261597	85.679474	-6.4325
924.915710	85.518791	-6.5663
931.618042	85.366486	-6.4677
938.368896	85.303085	-6.1409
945.168762	85.279037	-5.7514
952.017822	85.273552	-5.4849
958.916504	85.278969	-5.2876
965.865234	85.278999	-5.1701
972.864319	85.278999	-5.1221
979.914062	85.284431	-5.1527
987.014954	85.279053	-5.2138
994.167236	85.235672	-5.2306
1001.371399	85.192123	-5.2897
1008.627747	85.214844	-5.5373
1015.936646	85.192291	-5.7226
1023.298584	84.976212	-5.6629
1030.713867	84.739693	-5.2938
1038.182739	84.632469	-4.3993
1045.705933	84.582115	-3.2552
1053.283447	84.558380	-2.0707
1060.916016	84.581787	-0.8343
1068.603882	84.659843	0.4528
1076.347412	84.802277	1.6216
1084.147095	85.040352	2.5134
1092.003296	85.317047	3.0927
1099.916382	85.582199	3.2454
1107.886841	85.844917	3.0515
1115.915039	86.101204	2.5545
1124.001343	86.341171	1.7495
1132.146362	86.563995	0.5998
1140.350342	86.738449	-0.7565
1148.613770	86.817680	-2.2186
1156.937134	86.846947	-3.7098
1165.320801	86.860367	-5.1090
1173.765137	86.846130	-6.4482
1182.270752	86.801811	-7.7362
1190.838013	86.732338	-8.9244
1199.467285	86.631424	-9.9344
1208.159180	86.530373	-10.8624
1216.913940	86.475883	-11.7727
1225.732178	86.416260	-12.6856
1234.614380	86.311378	-13.6899
1243.560913	86.171593	-14.6446
1252.572266	85.989151	-15.4659
1261.648926	85.778908	-16.0681
1270.791382	85.529167	-16.2489
1280.000000	85.311722	-16.2730
1289.275391	85.250641	-16.4037
1298.618042	85.179451	-16.4521
1308.028320	84.897690	-16.3050
1317.506836	84.625977	-15.9917
1327.054077	84.574364	-15.4008
1336.670410	84.581947	-14.8418
1346.356567	84.546844	-14.6699
1356.112793	84.495232	-14.6449
1365.939697	84.416527	-14.6427
1375.837891	84.321419	-14.6609
1385.807739	84.226059	-14.6979
1395.849854	84.103561	-14.6306
1405.964844	83.905022	-14.3175
1416.152954	83.711639	-13.8102
1426.415039	83.603561	-13.0499
1436.751465	83.537193	-12.2291
1447.162720	83.503418	-11.5508
1457.649414	83.477119	-10.9294
1468.212158	83.421417	-10.3633
1478.851440	83.362221	-9.7992
1489.567871	83.311485	-9.1470
1500.361816	83.275108	-8.5144
1511.234131	83.285843	-8.0417
1522.185059	83.275162	-7.5444
1533.215454	83.143822	-6.8775
1544.325806	83.014473	-6.0570
1555.516602	83.004005	-4.9967
1566.788574	83.034828	-3.8608
1578.142090	83.052872	-2.7821
1589.578003	83.100708	-1.7731
1601.096680	83.221123	-0.8812
1612.698975	83.361412	-0.1318
1624.385254	83.473335	0.4208
1636.156250	83.584496	0.8166
1648.012451	83.718216	1.0695
1659.954590	83.840599	1.2037
1671.983398	83.921570	1.1994
1684.099243	83.971855	1.2028
1696.302856	83.978554	1.3583
1708.594971	83.982948	1.6543
1720.976196	84.012955	2.2256
1733.447144	84.096474	2.7759
1746.008423	84.313934	3.0166
1758.660645	84.536179	3.0513
1771.404663	84.626358	2.8209
1784.240967	84.683777	2.5311
1797.170288	84.759773	2.4698
1810.193359	84.865509	2.3359
1823.310791	85.067322	1.8771
1836.523193	85.250404	1.2239
1849.831421	85.290718	0.3574
1863.236084	85.279114	-0.5203
1876.737793	85.271065	-1.1834
1890.337524	85.252106	-1.7179
1904.035645	85.220444	-2.1299
1917.833008	85.192093	-2.4390
1931.730469	85.181503	-2.6320
1945.728638	85.191895	-2.8131
1959.828125	85.241638	-3.0758
1974.029907	85.299767	-3.4402
1988.334473	85.344292	-3.9963
2002.742798	85.365982	-4.6264
2017.255493	85.338974	-5.2568
2031.873291	85.291214	-5.8418
2046.597168	85.237038	-6.2676
2061.427734	85.192154	-6.6642
2076.365479	85.194542	-7.1251
2091.411865	85.192070	-7.6497
2106.566895	85.146225	-8.3549
2121.832031	85.052505	-8.9798
