"SPL Vertical"																																																																							
"On-Axis"		"10°"		"-10°"		"20°"		"-20°"		"30°"		"-30°"		"40°"		"-40°"		"50°"		"-50°"		"60°"		"-60°"		"70°"		"-70°"		"80°"		"-80°"		"90°"		"-90°"		"100°"		"-100°"		"110°"		"-110°"		"120°"		"-120°"		"130°"		"-130°"		"140°"		"-140°"		"150°"		"-150°"		"160°"		"-160°"		"170°"		"-170°"		"180°"	
"Frequency [Hz]"	"Sound Pessure Level [dB]  / [2.83V 1m] "	"Frequency [Hz]"	"Sound Pessure Level [dB]  / [2.83V 1m] "	"Frequency [Hz]"	"Sound Pessure Level [dB]  / [2.83V 1m] "	"Frequency [Hz]"	"Sound Pessure Level [dB]  / [2.83V 1m] "	"Frequency [Hz]"	"Sound Pessure Level [dB]  / [2.83V 1m] "	"Frequency [Hz]"	"Sound Pessure Level [dB]  / [2.83V 1m] "	"Frequency [Hz]"	"Sound Pessure Level [dB]  / [2.83V 1m] "	"Frequency [Hz]"	"Sound Pessure Level [dB]  / [2.83V 1m] "	"Frequency [Hz]"	"Sound Pessure Level [dB]  / [2.83V 1m] "	"Frequency [Hz]"	"Sound Pessure Level [dB]  / [2.83V 1m] "	"Frequency [Hz]"	"Sound Pessure Level [dB]  / [2.83V 1m] "	"Frequency [Hz]"	"Sound Pessure Level [dB]  / [2.83V 1m] "	"Frequency [Hz]"	"Sound Pessure Level [dB]  / [2.83V 1m] "	"Frequency [Hz]"	"Sound Pessure Level [dB]  / [2.83V 1m] "	"Frequency [Hz]"	"Sound Pessure Level [dB]  / [2.83V 1m] "	"Frequency [Hz]"	"Sound Pessure Level [dB]  / [2.83V 1m] "	"Frequency [Hz]"	"Sound Pessure Level [dB]  / [2.83V 1m] "	"Frequency [Hz]"	"Sound Pessure Level [dB]  / [2.83V 1m] "	"Frequency [Hz]"	"Sound Pessure Level [dB]  / [2.83V 1m] "	"Frequency [Hz]"	"Sound Pessure Level [dB]  / [2.83V 1m] "	"Frequency [Hz]"	"Sound Pessure Level [dB]  / [2.83V 1m] "	"Frequency [Hz]"	"Sound Pessure Level [dB]  / [2.83V 1m] "	"Frequency [Hz]"	"Sound Pessure Level [dB]  / [2.83V 1m] "	"Frequency [Hz]"	"Sound Pessure Level [dB]  / [2.83V 1m] "	"Frequency [Hz]"	"Sound Pessure Level [dB]  / [2.83V 1m] "	"Frequency [Hz]"	"Sound Pessure Level [dB]  / [2.83V 1m] "	"Frequency [Hz]"	"Sound Pessure Level [dB]  / [2.83V 1m] "	"Frequency [Hz]"	"Sound Pessure Level [dB]  / [2.83V 1m] "	"Frequency [Hz]"	"Sound Pessure Level [dB]  / [2.83V 1m] "	"Frequency [Hz]"	"Sound Pessure Level [dB]  / [2.83V 1m] "	"Frequency [Hz]"	"Sound Pessure Level [dB]  / [2.83V 1m] "	"Frequency [Hz]"	"Sound Pessure Level [dB]  / [2.83V 1m] "	"Frequency [Hz]"	"Sound Pessure Level [dB]  / [2.83V 1m] "	"Frequency [Hz]"	"Sound Pessure Level [dB]  / [2.83V 1m] "	"Frequency [Hz]"	"Sound Pessure Level [dB]  / [2.83V 1m] "	"Frequency [Hz]"	"Sound Pessure Level [dB]  / [2.83V 1m] "
20.5078	54.7856	20.5078	54.5552	20.5078	55.0305	20.5078	54.345	20.5078	55.2819	20.5078	54.1584	20.5078	55.5295	20.5078	53.9978	20.5078	55.762	20.5078	53.8648	20.5078	55.9682	20.5078	53.7614	20.5078	56.1378	20.5078	53.6892	20.5078	56.2629	20.5078	53.65	20.5078	56.3383	20.5078	53.6453	20.5078	56.3623	20.5078	53.6762	20.5078	56.3368	20.5078	53.7432	20.5078	56.2663	20.5078	53.8461	20.5078	56.1574	20.5078	53.9835	20.5078	56.0171	20.5078	54.1526	20.5078	55.8516	20.5078	54.3484	20.5078	55.6657	20.5078	54.5639	20.5078	55.4631	20.5078	54.7908	20.5078	55.2468	20.5078	55.0209
21.9727	54.5606	21.9727	54.2142	21.9727	54.9271	21.9727	53.9023	21.9727	55.2973	21.9727	53.6359	21.9727	55.6541	21.9727	53.421	21.9727	55.9816	21.9727	53.2599	21.9727	56.2654	21.9727	53.151	21.9727	56.4937	21.9727	53.0912	21.9727	56.6575	21.9727	53.077	21.9727	56.7514	21.9727	53.1053	21.9727	56.7742	21.9727	53.1743	21.9727	56.729	21.9727	53.2829	21.9727	56.6229	21.9727	53.4307	21.9727	56.4654	21.9727	53.6164	21.9727	56.2673	21.9727	53.8375	21.9727	56.0383	21.9727	54.0888	21.9727	55.7864	21.9727	54.363	21.9727	55.5171	21.9727	54.6511	21.9727	55.235	21.9727	54.9443
23.4375	55.3135	23.4375	54.9463	23.4375	55.7052	23.4375	54.6165	23.4375	56.1057	23.4375	54.3337	23.4375	56.4978	23.4375	54.1043	23.4375	56.8635	23.4375	53.9315	23.4375	57.1863	23.4375	53.8158	23.4375	57.4518	23.4375	53.7558	23.4375	57.649	23.4375	53.7491	23.4375	57.7713	23.4375	53.7931	23.4375	57.8169	23.4375	53.8851	23.4375	57.789	23.4375	54.0231	23.4375	57.6945	23.4375	54.2049	23.4375	57.5436	23.4375	54.4277	23.4375	57.3468	23.4375	54.6872	23.4375	57.1136	23.4375	54.9774	23.4375	56.8515	23.4375	55.2898	23.4375	56.5656	23.4375	55.6144	23.4375	56.2604	23.4375	55.941
24.9023	56.9451	24.9023	56.6233	24.9023	57.2908	24.9023	56.335	24.9023	57.6475	24.9023	56.0863	24.9023	57.9996	24.9023	55.8802	24.9023	58.3299	24.9023	55.7172	24.9023	58.6211	24.9023	55.5964	24.9023	58.8575	24.9023	55.5161	24.9023	59.026	24.9023	55.4748	24.9023	59.1178	24.9023	55.471	24.9023	59.1294	24.9023	55.5043	24.9023	59.0629	24.9023	55.5746	24.9023	58.9256	24.9023	55.6823	24.9023	58.7293	24.9023	55.8273	24.9023	58.4878	24.9023	56.0088	24.9023	58.2151	24.9023	56.2242	24.9023	57.9237	24.9023	56.4693	24.9023	57.6234	24.9023	56.7382	24.9023	57.3215	24.9023	57.0244
26.3672	56.9593	26.3672	56.5322	26.3672	57.4009	26.3672	56.1372	26.3672	57.8378	26.3672	55.7892	26.3672	58.2504	26.3672	55.4991	26.3672	58.6194	26.3672	55.273	26.3672	58.9269	26.3672	55.1125	26.3672	59.1569	26.3672	55.015	26.3672	59.2971	26.3672	54.9753	26.3672	59.3395	26.3672	54.987	26.3672	59.2817	26.3672	55.0434	26.3672	59.1286	26.3672	55.1386	26.3672	58.8921	26.3672	55.2678	26.3672	58.5905	26.3672	55.4267	26.3672	58.2468	26.3672	55.612	26.3672	57.8849	26.3672	55.8206	26.3672	57.5256	26.3672	56.0505	26.3672	57.1833	26.3672	56.3005	26.3672	56.8648	26.3672	56.5712
27.832	60.163	27.832	59.8091	27.832	60.5293	27.832	59.478	27.832	60.8956	27.832	59.1775	27.832	61.2472	27.832	58.9128	27.832	61.5685	27.832	58.6869	27.832	61.8432	27.832	58.5009	27.832	62.0561	27.832	58.3542	27.832	62.1938	27.832	58.2456	27.832	62.2463	27.832	58.1733	27.832	62.2082	27.832	58.1361	27.832	62.0791	27.832	58.1333	27.832	61.8644	27.832	58.1658	27.832	61.5749	27.832	58.2354	27.832	61.2256	27.832	58.3457	27.832	60.8353	27.832	58.501	27.832	60.4246	27.832	58.7055	27.832	60.0146	27.832	58.9621	27.832	59.6245	27.832	59.2701
29.2969	62.0576	29.2969	61.736	29.2969	62.3959	29.2969	61.4403	29.2969	62.7388	29.2969	61.1767	29.2969	63.0725	29.2969	60.9491	29.2969	63.3815	29.2969	60.7591	29.2969	63.6502	29.2969	60.6065	29.2969	63.8638	29.2969	60.4903	29.2969	64.0101	29.2969	60.4087	29.2969	64.0797	29.2969	60.3604	29.2969	64.0681	29.2969	60.3445	29.2969	63.9752	29.2969	60.3609	29.2969	63.8059	29.2969	60.4108	29.2969	63.5693	29.2969	60.4965	29.2969	63.2781	29.2969	60.6209	29.2969	62.9472	29.2969	60.7874	29.2969	62.5928	29.2969	60.9981	29.2969	62.2314	29.2969	61.2531	29.2969	61.8788	29.2969	61.5491
30.7617	63.4752	30.7617	63.1682	30.7617	63.7999	30.7617	62.8882	30.7617	64.1302	30.7617	62.6417	30.7617	64.4519	30.7617	62.4327	30.7617	64.7498	30.7617	62.2624	30.7617	65.0084	30.7617	62.1307	30.7617	65.2134	30.7617	62.0362	30.7617	65.3526	30.7617	61.9769	30.7617	65.4175	30.7617	61.9509	30.7617	65.4041	30.7617	61.9568	30.7617	65.3141	30.7617	61.9936	30.7617	65.1544	30.7617	62.0615	30.7617	64.936	30.7617	62.161	30.7617	64.6728	30.7617	62.2934	30.7617	64.3793	30.7617	62.4599	30.7617	64.0695	30.7617	62.661	30.7617	63.7558	30.7617	62.8955	30.7617	63.4496	30.7617	63.1602
32.2266	65.7192	32.2266	65.4098	32.2266	66.0412	32.2266	65.1225	32.2266	66.3642	32.2266	64.8645	32.2266	66.675	32.2266	64.6404	32.2266	66.9597	32.2266	64.4528	32.2266	67.2041	32.2266	64.3024	32.2266	67.395	32.2266	64.1889	32.2266	67.5214	32.2266	64.1112	32.2266	67.5753	32.2266	64.0682	32.2266	67.5534	32.2266	64.0592	32.2266	67.457	32.2266	64.0838	32.2266	67.2925	32.2266	64.1427	32.2266	67.0701	32.2266	64.2369	32.2266	66.8026	32.2266	64.3677	32.2266	66.5041	32.2266	64.536	32.2266	66.1881	32.2266	64.7418	32.2266	65.8674	32.2266	64.9831	32.2266	65.5533	32.2266	65.2557
33.6914	67.6684	33.6914	67.3846	33.6914	67.9628	33.6914	67.1196	33.6914	68.2571	33.6914	66.8799	33.6914	68.5395	33.6914	66.6695	33.6914	68.7966	33.6914	66.4908	33.6914	69.0152	33.6914	66.3447	33.6914	69.1824	33.6914	66.2311	33.6914	69.2877	33.6914	66.1492	33.6914	69.3235	33.6914	66.0982	33.6914	69.2865	33.6914	66.0776	33.6914	69.1783	33.6914	66.0869	33.6914	69.0053	33.6914	66.1264	33.6914	68.7782	33.6914	66.197	33.6914	68.5106	33.6914	66.2999	33.6914	68.2171	33.6914	66.4363	33.6914	67.9122	33.6914	66.6075	33.6914	67.6092	33.6914	66.8132	33.6914	67.3194	33.6914	67.0519
35.1562	69.4579	35.1562	69.1911	35.1562	69.7374	35.1562	68.945	35.1562	70.0196	35.1562	68.7254	35.1562	70.2931	35.1562	68.5363	35.1562	70.5454	35.1562	68.3799	35.1562	70.7636	35.1562	68.2571	35.1562	70.9358	35.1562	68.1677	35.1562	71.0519	35.1562	68.111	35.1562	71.1048	35.1562	68.086	35.1562	71.0913	35.1562	68.0918	35.1562	71.013	35.1562	68.1276	35.1562	70.8759	35.1562	68.1929	35.1562	70.6893	35.1562	68.2874	35.1562	70.465	35.1562	68.4109	35.1562	70.2153	35.1562	68.5631	35.1562	69.9521	35.1562	68.743	35.1562	69.6859	35.1562	68.9489	35.1562	69.4254	35.1562	69.1778
36.6211	71.3799	36.6211	71.1226	36.6211	71.6465	36.6211	70.8824	36.6211	71.9129	36.6211	70.6651	36.6211	72.1684	36.6211	70.475	36.6211	72.4013	36.6211	70.3147	36.6211	72.5995	36.6211	70.1854	36.6211	72.7518	36.6211	70.0875	36.6211	72.849	36.6211	70.0207	36.6211	72.8844	36.6211	69.9844	36.6211	72.8555	36.6211	69.9778	36.6211	72.764	36.6211	69.9999	36.6211	72.6161	36.6211	70.0503	36.6211	72.4214	36.6211	70.1286	36.6211	72.1916	36.6211	70.2345	36.6211	71.9396	36.6211	70.3681	36.6211	71.6774	36.6211	70.5291	36.6211	71.4161	36.6211	70.717	36.6211	71.1645	36.6211	70.9298
38.0859	73.2316	38.0859	72.9802	38.0859	73.4902	38.0859	72.7433	38.0859	73.747	38.0859	72.5269	38.0859	73.9918	38.0859	72.3352	38.0859	74.2138	38.0859	72.1712	38.0859	74.4018	38.0859	72.0363	38.0859	74.5454	38.0859	71.9314	38.0859	74.6357	38.0859	71.8562	38.0859	74.6666	38.0859	71.8105	38.0859	74.6357	38.0859	71.7937	38.0859	74.5445	38.0859	71.8055	38.0859	74.3986	38.0859	71.8458	38.0859	74.2066	38.0859	71.9151	38.0859	73.9796	38.0859	72.0139	38.0859	73.7291	38.0859	72.1431	38.0859	73.4667	38.0859	72.3028	38.0859	73.2031	38.0859	72.4921	38.0859	72.9477	38.0859	72.7086
39.5508	74.8181	39.5508	74.5775	39.5508	75.0657	39.5508	74.3511	39.5508	75.3114	39.5508	74.1447	39.5508	75.5455	39.5508	73.9626	39.5508	75.7572	39.5508	73.8075	39.5508	75.9359	39.5508	73.6812	39.5508	76.0716	39.5508	73.5842	39.5508	76.1561	39.5508	73.5167	39.5508	76.1839	39.5508	73.4781	39.5508	76.1528	39.5508	73.4679	39.5508	76.0648	39.5508	73.4854	39.5508	75.9256	39.5508	73.5301	39.5508	75.744	39.5508	73.6017	39.5508	75.5306	39.5508	73.7002	39.5508	75.2967	39.5508	73.8255	39.5508	75.0533	39.5508	73.9772	39.5508	74.81	39.5508	74.1543	39.5508	74.5749	39.5508	74.3547
41.0156	76.2979	41.0156	76.0804	41.0156	76.5191	41.0156	75.8732	41.0156	76.7364	41.0156	75.6818	41.0156	76.9413	41.0156	75.5108	41.0156	77.1248	41.0156	75.3635	41.0156	77.2779	41.0156	75.2425	41.0156	77.392	41.0156	75.1492	41.0156	77.4601	41.0156	75.0843	41.0156	77.4777	41.0156	75.0481	41.0156	77.4436	41.0156	75.04	41.0156	77.3602	41.0156	75.0595	41.0156	77.2332	41.0156	75.1057	41.0156	77.0711	41.0156	75.1776	41.0156	76.8837	41.0156	75.274	41.0156	76.6809	41.0156	75.3936	41.0156	76.4717	41.0156	75.5345	41.0156	76.2636	41.0156	75.6945	41.0156	76.062	41.0156	75.8713
42.4805	77.019	42.4805	76.7978	42.4805	77.2436	42.4805	76.5865	42.4805	77.4638	42.4805	76.3905	42.4805	77.6711	42.4805	76.2144	42.4805	77.8563	42.4805	76.0616	42.4805	78.0099	42.4805	75.935	42.4805	78.1231	42.4805	75.8362	42.4805	78.189	42.4805	75.7663	42.4805	78.2028	42.4805	75.7258	42.4805	78.1633	42.4805	75.7142	42.4805	78.0731	42.4805	75.7308	42.4805	77.9381	42.4805	75.7746	42.4805	77.7672	42.4805	75.8442	42.4805	77.5706	42.4805	75.9381	42.4805	77.3587	42.4805	76.0549	42.4805	77.1414	42.4805	76.1932	42.4805	76.9267	42.4805	76.3514	42.4805	76.7208	42.4805	76.528
43.9453	77.8759	43.9453	77.6634	43.9453	78.0904	43.9453	77.4589	43.9453	78.2998	43.9453	77.2676	43.9453	78.4961	43.9453	77.0937	43.9453	78.6707	43.9453	76.9406	43.9453	78.8148	43.9453	76.8112	43.9453	78.9203	43.9453	76.7074	43.9453	78.9806	43.9453	76.6308	43.9453	78.9915	43.9453	76.5823	43.9453	78.9519	43.9453	76.5624	43.9453	78.8642	43.9453	76.5712	43.9453	78.734	43.9453	76.6082	43.9453	78.5695	43.9453	76.6728	43.9453	78.3798	43.9453	76.7636	43.9453	78.1746	43.9453	76.8793	43.9453	77.9628	43.9453	77.0179	43.9453	77.7517	43.9453	77.1773	43.9453	77.5474	43.9453	77.3548
45.4102	78.3187	45.4102	78.1081	45.4102	78.5296	45.4102	77.9038	45.4102	78.7335	45.4102	77.7111	45.4102	78.9228	45.4102	77.5344	45.4102	79.0891	45.4102	77.3775	45.4102	79.224	45.4102	77.2433	45.4102	79.3199	45.4102	77.1344	45.4102	79.3707	45.4102	77.0526	45.4102	79.3729	45.4102	76.9993	45.4102	79.3259	45.4102	76.9753	45.4102	79.2326	45.4102	76.9809	45.4102	79.0988	45.4102	77.0157	45.4102	78.933	45.4102	77.0786	45.4102	78.7445	45.4102	77.1682	45.4102	78.5426	45.4102	77.2822	45.4102	78.3359	45.4102	77.4184	45.4102	78.131	45.4102	77.5741	45.4102	77.9332	45.4102	77.7466
46.875	78.6865	46.875	78.4784	46.875	78.8934	46.875	78.2752	46.875	79.0919	46.875	78.0824	46.875	79.2745	46.875	77.9045	46.875	79.433	46.875	77.7456	46.875	79.5595	46.875	77.6087	46.875	79.6467	46.875	77.4963	46.875	79.6889	46.875	77.4104	46.875	79.6828	46.875	77.3521	46.875	79.6279	46.875	77.3223	46.875	79.5272	46.875	77.321	46.875	79.3868	46.875	77.3479	46.875	79.215	46.875	77.4021	46.875	79.0216	46.875	77.4823	46.875	78.8162	46.875	77.5868	46.875	78.6077	46.875	77.7136	46.875	78.4032	46.875	77.8609	46.875	78.2081	46.875	78.0264
48.3398	79.0053	48.3398	78.8017	48.3398	79.2069	48.3398	78.6023	48.3398	79.3996	48.3398	78.4124	48.3398	79.5762	48.3398	78.2364	48.3398	79.7287	48.3398	78.0784	48.3398	79.8495	48.3398	77.9414	48.3398	79.9316	48.3398	77.8279	48.3398	79.9695	48.3398	77.7399	48.3398	79.96	48.3398	77.6784	48.3398	79.9029	48.3398	77.6442	48.3398	79.8008	48.3398	77.6374	48.3398	79.6596	48.3398	77.6578	48.3398	79.4874	48.3398	77.7047	48.3398	79.2933	48.3398	77.777	48.3398	79.087	48.3398	77.8738	48.3398	78.8774	48.3398	77.9937	48.3398	78.6722	48.3398	78.1355	48.3398	78.4774	48.3398	78.2974
51.2695	79.4299	51.2695	79.2328	51.2695	79.6238	51.2695	79.0385	51.2695	79.808	51.2695	78.8524	51.2695	79.9753	51.2695	78.6793	51.2695	80.1186	51.2695	78.5231	51.2695	80.2307	51.2695	78.3873	51.2695	80.3054	51.2695	78.2745	51.2695	80.338	51.2695	78.1868	51.2695	80.3257	51.2695	78.1255	51.2695	80.2687	51.2695	78.0911	51.2695	80.1698	51.2695	78.0838	51.2695	80.0344	51.2695	78.1033	51.2695	79.87	51.2695	78.1488	51.2695	79.685	51.2695	78.2193	51.2695	79.488	51.2695	78.3137	51.2695	79.2872	51.2695	78.4307	51.2695	79.0897	51.2695	78.5689	51.2695	78.9013	51.2695	78.7266
52.7344	79.6415	52.7344	79.4496	52.7344	79.8295	52.7344	79.2598	52.7344	80.0071	52.7344	79.0774	52.7344	80.1676	52.7344	78.9074	52.7344	80.304	52.7344	78.7539	52.7344	80.41	52.7344	78.6206	52.7344	80.4797	52.7344	78.5102	52.7344	80.5089	52.7344	78.4248	52.7344	80.4954	52.7344	78.3658	52.7344	80.4397	52.7344	78.3338	52.7344	80.3446	52.7344	78.3289	52.7344	80.2155	52.7344	78.3506	52.7344	80.0594	52.7344	78.398	52.7344	79.8842	52.7344	78.4699	52.7344	79.6978	52.7344	78.5649	52.7344	79.5075	52.7344	78.6813	52.7344	79.3196	52.7344	78.8173	52.7344	79.1393	52.7344	78.9708
54.1992	79.8649	54.1992	79.6796	54.1992	80.0448	54.1992	79.4947	54.1992	80.2132	54.1992	79.3157	54.1992	80.3636	54.1992	79.1476	54.1992	80.4896	54.1992	78.9948	54.1992	80.5852	54.1992	78.8612	54.1992	80.6453	54.1992	78.7498	54.1992	80.6661	54.1992	78.663	54.1992	80.646	54.1992	78.6023	54.1992	80.5856	54.1992	78.5687	54.1992	80.4883	54.1992	78.5621	54.1992	80.3597	54.1992	78.5819	54.1992	80.2068	54.1992	78.6272	54.1992	80.0374	54.1992	78.6964	54.1992	79.859	54.1992	78.7875	54.1992	79.6783	54.1992	78.8986	54.1992	79.501	54.1992	79.0277	54.1992	79.3313	54.1992	79.1727
55.6641	80.0935	55.6641	79.9127	55.6641	80.269	55.6641	79.7323	55.6641	80.433	55.6641	79.5576	55.6641	80.5792	55.6641	79.3933	55.6641	80.7013	55.6641	79.2437	55.6641	80.7931	55.6641	79.1122	55.6641	80.8497	55.6641	79.0018	55.6641	80.8674	55.6641	78.9145	55.6641	80.8444	55.6641	78.8518	55.6641	80.7815	55.6641	78.8144	55.6641	80.682	55.6641	78.8024	55.6641	80.5514	55.6641	78.8156	55.6641	80.3965	55.6641	78.8529	55.6641	80.2252	55.6641	78.9135	55.6641	80.0451	55.6641	78.996	55.6641	79.8631	55.6641	79.0991	55.6641	79.6855	55.6641	79.2214	55.6641	79.517	55.6641	79.3614
58.5938	80.5304	58.5938	80.3514	58.5938	80.7031	58.5938	80.1721	58.5938	80.8632	58.5938	79.998	58.5938	81.0044	58.5938	79.8344	58.5938	81.1206	58.5938	79.6857	58.5938	81.2063	58.5938	79.5557	58.5938	81.2568	58.5938	79.4473	58.5938	81.2691	58.5938	79.363	58.5938	81.2424	58.5938	79.304	58.5938	81.1779	58.5938	79.2711	58.5938	81.0796	58.5938	79.2641	58.5938	80.9529	58.5938	79.2824	58.5938	80.8047	58.5938	79.3246	58.5938	80.6426	58.5938	79.3891	58.5938	80.4733	58.5938	79.4739	58.5938	80.3031	58.5938	79.5771	58.5938	80.137	58.5938	79.6969	58.5938	79.9788	58.5938	79.8314
60.0586	80.7985	60.0586	80.6223	60.0586	80.9679	60.0586	80.4452	60.0586	81.1241	60.0586	80.2728	60.0586	81.2611	60.0586	80.1103	60.0586	81.3731	60.0586	79.9624	60.0586	81.4545	60.0586	79.833	60.0586	81.5013	60.0586	79.7253	60.0586	81.5108	60.0586	79.6416	60.0586	81.4822	60.0586	79.5834	60.0586	81.4173	60.0586	79.5514	60.0586	81.3199	60.0586	79.5454	60.0586	81.1957	60.0586	79.5645	60.0586	81.0517	60.0586	79.6074	60.0586	80.8947	60.0586	79.6723	60.0586	80.7314	60.0586	79.7572	60.0586	80.5674	60.0586	79.8598	60.0586	80.4071	60.0586	79.9781	60.0586	80.2538	60.0586	80.1101
62.9883	81.417	62.9883	81.247	62.9883	81.5783	62.9883	81.0739	62.9883	81.7251	62.9883	80.9032	62.9883	81.8515	62.9883	80.74	62.9883	81.952	62.9883	80.5889	62.9883	82.0217	62.9883	80.4539	62.9883	82.0568	62.9883	80.3384	62.9883	82.0547	62.9883	80.2451	62.9883	82.0153	62.9883	80.1758	62.9883	81.9404	62.9883	80.1319	62.9883	81.8342	62.9883	80.1136	62.9883	81.7026	62.9883	80.1207	62.9883	81.5526	62.9883	80.1522	62.9883	81.3915	62.9883	80.2066	62.9883	81.226	62.9883	80.282	62.9883	81.0616	62.9883	80.3764	62.9883	80.9028	62.9883	80.4876	62.9883	80.7528	62.9883	80.6137
64.4531	81.6383	64.4531	81.4687	64.4531	81.7983	64.4531	81.2951	64.4531	81.9427	64.4531	81.1229	64.4531	82.0659	64.4531	80.9576	64.4531	82.1625	64.4531	80.8038	64.4531	82.2276	64.4531	80.6658	64.4531	82.2576	64.4531	80.5474	64.4531	82.2503	64.4531	80.4512	64.4531	82.2056	64.4531	80.3796	64.4531	82.1258	64.4531	80.3335	64.4531	82.0151	64.4531	80.3135	64.4531	81.8797	64.4531	80.319	64.4531	81.7269	64.4531	80.3488	64.4531	81.5641	64.4531	80.4014	64.4531	81.3982	64.4531	80.4744	64.4531	81.2348	64.4531	80.5659	64.4531	81.0782	64.4531	80.6737	64.4531	80.9313	64.4531	80.796
67.3828	82.0326	67.3828	81.8679	67.3828	82.1867	67.3828	81.6978	67.3828	82.3247	67.3828	81.5279	67.3828	82.4414	67.3828	81.3632	67.3828	82.5316	67.3828	81.2084	67.3828	82.5913	67.3828	81.0679	67.3828	82.6172	67.3828	80.9456	67.3828	82.6074	67.3828	80.8444	67.3828	82.562	67.3828	80.7668	67.3828	82.4831	67.3828	80.7144	67.3828	82.3744	67.3828	80.6878	67.3828	82.2414	67.3828	80.6868	67.3828	82.0906	67.3828	80.7109	67.3828	81.9286	67.3828	80.7585	67.3828	81.762	67.3828	80.828	67.3828	81.5965	67.3828	80.9175	67.3828	81.4368	67.3828	81.025	67.3828	81.2866	67.3828	81.1487
68.8477	82.1338	68.8477	81.9743	68.8477	82.2829	68.8477	81.8097	68.8477	82.4163	68.8477	81.6452	68.8477	82.5289	68.8477	81.4857	68.8477	82.6159	68.8477	81.3359	68.8477	82.6732	68.8477	81.2001	68.8477	82.6979	68.8477	81.0819	68.8477	82.6884	68.8477	80.9845	68.8477	82.645	68.8477	80.9102	68.8477	82.5699	68.8477	80.8606	68.8477	82.467	68.8477	80.8365	68.8477	82.3417	68.8477	80.8379	68.8477	82.1999	68.8477	80.864	68.8477	82.0478	68.8477	80.9135	68.8477	81.8911	68.8477	80.9845	68.8477	81.7348	68.8477	81.0748	68.8477	81.5828	68.8477	81.1821	68.8477	81.4384	68.8477	81.3041
