"Directivity Index"			
"Sound Power DI"		"Early Reflections DI"	
"Frequency [Hz]"	"[dB] Directivity Index "	"Frequency [Hz]"	"[dB] Directivity Index "
20.5078	-3.13037	20.5078	-1.57086
21.9727	-1.67134	21.9727	-0.719769
23.4375	-0.0574438	23.4375	0.322542
24.9023	-6.42979	24.9023	-3.76066
26.3672	-0.824873	26.3672	-0.145629
27.832	-5.13573	27.832	-2.58515
29.2969	-3.02181	29.2969	-1.35569
30.7617	-3.02866	30.7617	-1.34894
32.2266	-2.37884	32.2266	-1.00858
33.6914	-2.2317	33.6914	-0.931515
35.1562	-2.16335	35.1562	-0.881307
36.6211	-2.24879	36.6211	-1.00133
38.0859	-1.64242	38.0859	-0.68124
39.5508	-1.56497	39.5508	-0.637376
41.0156	-1.49214	41.0156	-0.613805
42.4805	-1.42473	42.4805	-0.587023
43.9453	-1.36747	43.9453	-0.568518
45.4102	-1.29771	45.4102	-0.541983
46.875	-1.17799	46.875	-0.494905
48.3398	-1.05346	48.3398	-0.436915
51.2695	-1.09677	51.2695	-0.468044
52.7344	-0.978069	52.7344	-0.417968
54.1992	-0.840056	54.1992	-0.355911
55.6641	-0.784395	55.6641	-0.331008
58.5938	-0.713363	58.5938	-0.304054
60.0586	-0.656818	60.0586	-0.28013
62.9883	-0.581146	62.9883	-0.248357
64.4531	-0.534351	64.4531	-0.22839
67.3828	-0.456074	67.3828	-0.19797
68.8477	-0.441702	68.8477	-0.192222
71.7773	-0.40732	71.7773	-0.179113
74.707	-0.3675	74.707	-0.162968
77.6367	-0.317705	77.6367	-0.142358
79.1016	-0.321806	79.1016	-0.145358
82.0312	-0.329297	82.0312	-0.149615
84.9609	-0.299203	84.9609	-0.136038
87.8906	-0.28892	87.8906	-0.131805
90.8203	-0.251872	90.8203	-0.117263
95.2148	-0.161059	95.2148	-0.0759305
98.1445	-0.129623	98.1445	-0.0614917
101.074	-0.0831888	101.074	-0.0401818
105.469	-0.0117674	105.469	-0.0109079
108.398	-0.0523989	108.398	-0.0298487
112.793	-0.0670383	112.793	-0.0315872
117.188	-0.0073174	117.188	-0.000135218
120.117	0.00726423	120.117	0.00251192
124.512	0.00485291	124.512	-0.00016081
128.906	0.0940967	128.906	0.0448021
133.301	0.23465	133.301	0.100517
139.16	0.0901679	139.16	0.0312028
143.555	0.128997	143.555	0.0633545
147.949	0.181663	147.949	0.0891978
153.809	0.270749	153.809	0.109632
159.668	0.222931	159.668	0.0979244
165.527	0.328026	165.527	0.178889
171.387	0.485383	171.387	0.22549
177.246	0.352725	177.246	0.172528
183.105	0.386345	183.105	0.19716
188.965	0.456696	188.965	0.235103
196.289	0.454155	196.289	0.244947
203.613	0.709973	203.613	0.369531
210.938	0.92177	210.938	0.426651
218.262	0.647622	218.262	0.298381
225.586	0.67281	225.586	0.329471
232.91	0.861642	232.91	0.434386
241.699	0.95166	241.699	0.472736
250.488	1.18338	250.488	0.588726
259.277	1.36552	259.277	0.637378
268.066	0.966351	268.066	0.450919
276.855	1.31171	276.855	0.65395
287.109	1.30844	287.109	0.619419
297.363	1.70559	297.363	0.787393
307.617	1.07893	307.617	0.50913
319.336	1.4611	319.336	0.665256
329.59	1.64245	329.59	0.748591
341.309	1.64705	341.309	0.771067
353.027	2.24729	353.027	1.04607
366.211	1.73747	366.211	0.794989
379.395	1.86448	379.395	0.82983
392.578	1.64169	392.578	0.721086
405.762	1.98218	405.762	0.945042
420.41	2.23794	420.41	1.18615
435.059	2.49696	435.059	1.23798
451.172	2.69157	451.172	1.33154
465.82	2.70562	465.82	1.29417
483.398	3.0991	483.398	1.52833
499.512	2.82064	499.512	1.23993
517.09	2.65042	517.09	1.18554
536.133	2.70679	536.133	1.24426
555.176	2.88424	555.176	1.26997
574.219	3.13686	574.219	1.41518
594.727	2.80008	594.727	1.09643
615.234	3.29955	615.234	1.44354
637.207	3.24007	637.207	1.32574
659.18	2.70656	659.18	0.963548
682.617	3.0025	682.617	1.28685
707.52	3.58264	707.52	1.42957
732.422	2.50591	732.422	0.705904
757.324	3.28308	757.324	1.17657
785.156	3.7147	785.156	1.43742
811.523	3.89378	811.523	1.65384
840.82	4.48861	840.82	2.22744
870.117	4.40519	870.117	2.33001
900.879	4.11448	900.879	2.33523
933.105	4.60447	933.105	2.4977
965.332	4.32092	965.332	2.31798
1000.49	4.1352	1000.49	2.21333
1035.64	4.29282	1035.64	2.26197
1072.27	4.32166	1072.27	2.21613
1108.89	4.37545	1108.89	2.09311
1148.44	4.44282	1148.44	2.01026
1189.45	4.5007	1189.45	1.93996
1230.47	4.21846	1230.47	1.71561
1274.41	4.77814	1274.41	2.01175
1319.82	5.20213	1319.82	2.17904
1366.7	5.4335	1366.7	2.21382
1413.57	6.00354	1413.57	2.61
1463.38	6.00307	1463.38	2.45496
1516.11	6.4865	1516.11	2.81662
1568.85	7.0731	1568.85	3.28239
1624.51	7.4546	1624.51	3.64678
1681.64	7.64171	1681.64	3.90563
1741.7	7.71338	1741.7	4.1767
1803.22	7.82214	1803.22	4.43633
1866.21	7.99868	1866.21	4.66346
1932.13	8.21126	1932.13	4.83571
1999.51	8.19446	1999.51	4.95802
2069.82	8.21237	2069.82	4.9335
2143.07	8.40649	2143.07	4.92404
2219.24	8.03319	2219.24	4.67792
2296.88	8.3315	2296.88	4.85966
2378.91	8.42887	2378.91	4.95203
2462.4	8.12897	2462.4	4.57487
2548.83	8.01419	2548.83	4.29327
2639.65	8.05727	2639.65	4.38383
2731.93	7.86599	2731.93	4.12377
2828.61	7.75243	2828.61	4.04113
2928.22	7.74206	2928.22	3.96383
3030.76	7.81547	3030.76	3.98259
3137.7	7.76364	3137.7	3.87473
3249.02	7.97101	3249.02	3.99353
3363.28	7.82347	3363.28	3.85546
3481.93	8.23293	3481.93	4.03984
3604.98	8.15324	3604.98	3.88231
3732.42	8.49804	3732.42	4.14728
3864.26	8.35291	3864.26	3.94543
4000.49	8.61783	4000.49	4.17292
4141.11	8.49759	4141.11	4.08525
4287.6	8.58833	4287.6	4.1641
4438.48	8.49139	4438.48	4.21229
4595.21	8.57288	4595.21	4.16367
4756.35	8.63792	4756.35	4.31779
4924.8	8.46999	4924.8	4.25775
5097.66	8.44332	5097.66	4.26229
5277.83	8.42678	5277.83	4.18509
5463.87	8.64223	5463.87	4.36899
5657.23	8.91704	5657.23	4.4304
5856.45	9.03524	5856.45	4.46805
6062.99	9.24372	6062.99	4.57845
6276.86	9.36706	6276.86	4.62602
6498.05	9.52343	6498.05	4.76474
6726.56	9.53524	6726.56	4.8621
6963.87	9.34263	6963.87	4.71945
7209.96	9.29252	7209.96	4.71111
7464.84	9.35356	7464.84	4.72459
7727.05	9.36869	7727.05	4.67745
7999.51	9.572	7999.51	4.76521
8282.23	9.71128	8282.23	4.83268
8573.73	9.76411	8573.73	4.81069
8876.95	9.68043	8876.95	4.73368
9188.96	9.48274	9188.96	4.59449
9514.16	9.54147	9514.16	4.58352
9849.61	9.89742	9849.61	4.86739
10196.8	10.0294	10196.8	4.95194
10555.7	10.078	10555.7	4.94874
10927.7	10.0925	10927.7	4.97632
11313	9.83412	11313	4.87081
11712.9	9.94802	11712.9	5.01364
12126	10.1554	12126	5.11334
12553.7	10.2331	12553.7	5.03703
12996.1	10.2999	12996.1	5.01458
13454.6	10.0438	13454.6	4.73249
13929.2	10.1842	13929.2	4.8103
14419.9	10.5799	14419.9	5.03655
14928.2	11.0517	14928.2	5.31838
15455.6	11.5475	15455.6	5.65115
16000.5	12.3059	16000.5	6.19741
16564.5	13.0727	16564.5	6.66639
17148.9	13.4851	17148.9	6.92178
17752.4	13.4121	17752.4	6.9409
18379.4	12.7428	18379.4	6.64906
19026.9	11.7563	19026.9	6.211
19697.8	10.6109	19697.8	5.53585
19999.5	10.1867	19999.5	5.18279
